AkkuMasterC4
Zeit [sec];Spannung [V];Strom [A];Ladung [mAh]
0.00; 4.505;0.433;0.000
10.00; 4.535;0.433;2.000
20.00; 4.560;0.433;3.000
30.00; 4.580;0.433;4.000
40.00; 4.605;0.433;5.000
50.00; 4.605;0.433;6.000
60.00; 4.630;0.433;7.000
70.00; 4.650;0.433;9.000
80.00; 4.660;0.433;10.000
90.00; 4.680;0.433;11.000
100.00; 4.695;0.433;12.000
110.00; 4.710;0.433;13.000
120.00; 4.725;0.433;14.000
130.00; 4.730;0.433;16.000
140.00; 4.740;0.433;17.000
150.00; 4.755;0.433;18.000
160.00; 4.760;0.433;19.000
170.00; 4.770;0.433;20.000
180.00; 4.785;0.433;21.000
190.00; 4.785;0.433;23.000
200.00; 4.785;0.433;24.000
210.00; 4.810;0.433;25.000
220.00; 4.820;0.433;26.000
230.00; 4.815;0.433;27.000
240.00; 4.835;0.433;28.000
250.00; 4.840;0.433;30.000
260.00; 4.860;0.433;31.000
270.00; 4.830;0.433;32.000
280.00; 4.870;0.433;33.000
290.00; 4.865;0.433;34.000
300.00; 4.865;0.433;36.000
310.00; 4.880;0.433;38.000
320.00; 4.890;0.433;39.000
330.00; 4.890;0.433;40.000
340.00; 4.895;0.433;41.000
350.00; 4.915;0.433;42.000
360.00; 4.905;0.433;43.000
370.00; 4.920;0.433;45.000
380.00; 4.925;0.433;46.000
390.00; 4.920;0.433;47.000
400.00; 4.940;0.433;48.000
410.00; 4.955;0.433;49.000
420.00; 4.955;0.433;50.000
430.00; 4.965;0.433;52.000
440.00; 4.950;0.433;53.000
450.00; 4.955;0.433;54.000
460.00; 4.965;0.433;55.000
470.00; 4.980;0.433;56.000
480.00; 4.980;0.433;57.000
490.00; 4.980;0.433;59.000
500.00; 4.990;0.433;60.000
510.00; 4.995;0.433;61.000
520.00; 4.995;0.433;62.000
530.00; 5.000;0.433;63.000
540.00; 5.010;0.433;64.000
550.00; 5.010;0.433;66.000
560.00; 5.010;0.433;67.000
570.00; 5.010;0.433;68.000
580.00; 5.005;0.433;69.000
590.00; 5.040;0.433;70.000
600.00; 5.045;0.433;72.000
610.00; 5.030;0.433;74.000
620.00; 5.040;0.433;75.000
630.00; 5.060;0.433;76.000
640.00; 5.055;0.433;77.000
650.00; 5.075;0.433;78.000
660.00; 5.055;0.433;79.000
670.00; 5.070;0.433;81.000
680.00; 5.065;0.433;82.000
690.00; 5.080;0.433;83.000
700.00; 5.075;0.433;84.000
710.00; 5.080;0.433;85.000
720.00; 5.085;0.433;86.000
730.00; 5.090;0.433;88.000
740.00; 5.075;0.433;89.000
750.00; 5.105;0.433;90.000
760.00; 5.100;0.433;91.000
770.00; 5.100;0.433;92.000
780.00; 5.105;0.433;93.000
790.00; 5.120;0.433;95.000
800.00; 5.115;0.433;96.000
810.00; 5.115;0.433;97.000
820.00; 5.115;0.433;98.000
830.00; 5.115;0.433;99.000
840.00; 5.120;0.433;100.000
850.00; 5.140;0.433;102.000
860.00; 5.130;0.433;103.000
870.00; 5.130;0.433;104.000
880.00; 5.140;0.433;105.000
890.00; 5.135;0.433;106.000
900.00; 5.135;0.433;108.000
910.00; 5.135;0.433;110.000
920.00; 5.145;0.433;111.000
930.00; 5.155;0.433;112.000
940.00; 5.155;0.433;113.000
950.00; 5.160;0.433;114.000
960.00; 5.160;0.433;115.000
970.00; 5.165;0.433;117.000
980.00; 5.165;0.433;118.000
990.00; 5.175;0.433;119.000
1000.00; 5.180;0.433;120.000
1010.00; 5.180;0.433;121.000
1020.00; 5.180;0.433;122.000
1030.00; 5.180;0.433;124.000
1040.00; 5.165;0.433;125.000
1050.00; 5.180;0.433;126.000
1060.00; 5.190;0.433;127.000
1070.00; 5.180;0.433;128.000
1080.00; 5.190;0.433;129.000
1090.00; 5.195;0.433;131.000
1100.00; 5.205;0.433;132.000
1110.00; 5.195;0.433;133.000
1120.00; 5.205;0.433;134.000
1130.00; 5.195;0.433;135.000
1140.00; 5.205;0.433;136.000
1150.00; 5.210;0.433;138.000
1160.00; 5.190;0.433;139.000
1170.00; 5.210;0.433;140.000
1180.00; 5.210;0.433;141.000
1190.00; 5.210;0.433;142.000
1200.00; 5.220;0.433;144.000
1210.00; 5.235;0.433;146.000
1220.00; 5.215;0.433;147.000
1230.00; 5.225;0.433;148.000
1240.00; 5.215;0.433;149.000
1250.00; 5.220;0.433;150.000
1260.00; 5.230;0.433;151.000
1270.00; 5.220;0.433;153.000
1280.00; 5.240;0.433;154.000
1290.00; 5.225;0.433;155.000
1300.00; 5.240;0.433;156.000
1310.00; 5.240;0.433;157.000
1320.00; 5.240;0.433;158.000
1330.00; 5.240;0.433;160.000
1340.00; 5.255;0.433;161.000
1350.00; 5.250;0.433;162.000
1360.00; 5.250;0.433;163.000
1370.00; 5.250;0.433;164.000
1380.00; 5.245;0.433;165.000
1390.00; 5.255;0.433;167.000
1400.00; 5.265;0.433;168.000
1410.00; 5.255;0.433;169.000
1420.00; 5.260;0.433;170.000
1430.00; 5.265;0.433;171.000
1440.00; 5.250;0.433;172.000
1450.00; 5.250;0.433;174.000
1460.00; 5.255;0.433;175.000
1470.00; 5.265;0.433;176.000
1480.00; 5.250;0.433;177.000
1490.00; 5.265;0.433;178.000
1500.00; 5.270;0.433;180.000
1510.00; 5.265;0.433;182.000
1520.00; 5.270;0.433;183.000
1530.00; 5.285;0.433;184.000
1540.00; 5.270;0.433;185.000
1550.00; 5.275;0.433;186.000
1560.00; 5.280;0.433;187.000
1570.00; 5.285;0.433;189.000
1580.00; 5.280;0.433;190.000
1590.00; 5.295;0.433;191.000
1600.00; 5.285;0.433;192.000
1610.00; 5.295;0.433;193.000
1620.00; 5.295;0.433;194.000
1630.00; 5.290;0.433;196.000
1640.00; 5.285;0.433;197.000
1650.00; 5.295;0.433;198.000
1660.00; 5.295;0.433;199.000
1670.00; 5.310;0.433;200.000
1680.00; 5.300;0.433;201.000
1690.00; 5.295;0.433;203.000
1700.00; 5.295;0.433;204.000
1710.00; 5.285;0.433;205.000
1720.00; 5.300;0.433;206.000
1730.00; 5.305;0.433;207.000
1740.00; 5.295;0.433;208.000
1750.00; 5.290;0.433;210.000
1760.00; 5.310;0.433;211.000
1770.00; 5.300;0.433;212.000
1780.00; 5.295;0.433;213.000
1790.00; 5.315;0.433;214.000
1800.00; 5.315;0.433;216.000
1810.00; 5.320;0.433;218.000
1820.00; 5.315;0.433;219.000
1830.00; 5.315;0.433;220.000
1840.00; 5.315;0.433;221.000
1850.00; 5.315;0.433;222.000
1860.00; 5.310;0.433;223.000
1870.00; 5.320;0.433;225.000
1880.00; 5.325;0.433;226.000
1890.00; 5.320;0.433;227.000
1900.00; 5.330;0.433;228.000
1910.00; 5.330;0.433;229.000
1920.00; 5.330;0.433;230.000
1930.00; 5.330;0.433;232.000
1940.00; 5.325;0.433;233.000
1950.00; 5.335;0.433;234.000
1960.00; 5.335;0.433;235.000
1970.00; 5.335;0.433;236.000
1980.00; 5.340;0.433;237.000
1990.00; 5.340;0.433;239.000
2000.00; 5.325;0.433;240.000
2010.00; 5.345;0.433;241.000
2020.00; 5.345;0.433;242.000
2030.00; 5.345;0.433;243.000
2040.00; 5.335;0.433;244.000
2050.00; 5.340;0.433;246.000
2060.00; 5.330;0.433;247.000
2070.00; 5.345;0.433;248.000
2080.00; 5.355;0.433;249.000
2090.00; 5.345;0.433;250.000
2100.00; 5.340;0.433;252.000
2110.00; 5.340;0.433;254.000
2120.00; 5.345;0.433;255.000
2130.00; 5.355;0.433;256.000
2140.00; 5.335;0.433;257.000
2150.00; 5.340;0.433;258.000
2160.00; 5.355;0.433;259.000
2170.00; 5.350;0.433;261.000
2180.00; 5.345;0.433;262.000
2190.00; 5.355;0.433;263.000
2200.00; 5.355;0.433;264.000
2210.00; 5.345;0.433;265.000
2220.00; 5.350;0.433;266.000
2230.00; 5.360;0.433;268.000
2240.00; 5.360;0.433;269.000
2250.00; 5.340;0.433;270.000
2260.00; 5.365;0.433;271.000
2270.00; 5.360;0.433;272.000
2280.00; 5.360;0.433;273.000
2290.00; 5.355;0.433;275.000
2300.00; 5.365;0.433;276.000
2310.00; 5.370;0.433;277.000
2320.00; 5.350;0.433;278.000
2330.00; 5.360;0.433;279.000
2340.00; 5.370;0.433;280.000
2350.00; 5.370;0.433;282.000
2360.00; 5.370;0.433;283.000
2370.00; 5.375;0.433;284.000
2380.00; 5.375;0.433;285.000
2390.00; 5.375;0.433;286.000
2400.00; 5.365;0.433;288.000
2410.00; 5.390;0.433;290.000
2420.00; 5.385;0.433;291.000
2430.00; 5.375;0.433;292.000
2440.00; 5.375;0.433;293.000
2450.00; 5.380;0.433;294.000
2460.00; 5.375;0.433;295.000
2470.00; 5.375;0.433;297.000
2480.00; 5.385;0.433;298.000
2490.00; 5.380;0.433;299.000
2500.00; 5.390;0.433;300.000
2510.00; 5.390;0.433;301.000
2520.00; 5.375;0.433;302.000
2530.00; 5.385;0.433;304.000
2540.00; 5.385;0.433;305.000
2550.00; 5.390;0.433;306.000
2560.00; 5.380;0.433;307.000
2570.00; 5.390;0.433;308.000
2580.00; 5.390;0.433;309.000
2590.00; 5.390;0.433;311.000
2600.00; 5.390;0.433;312.000
2610.00; 5.385;0.433;313.000
2620.00; 5.395;0.433;314.000
2630.00; 5.390;0.433;315.000
2640.00; 5.380;0.433;316.000
2650.00; 5.405;0.433;318.000
2660.00; 5.390;0.433;319.000
2670.00; 5.395;0.433;320.000
2680.00; 5.400;0.433;321.000
2690.00; 5.405;0.433;322.000
2700.00; 5.390;0.433;324.000
2710.00; 5.390;0.433;326.000
2720.00; 5.400;0.433;327.000
2730.00; 5.400;0.433;328.000
2740.00; 5.390;0.433;329.000
2750.00; 5.385;0.433;330.000
2760.00; 5.405;0.433;331.000
2770.00; 5.390;0.433;333.000
2780.00; 5.405;0.433;334.000
2790.00; 5.410;0.433;335.000
2800.00; 5.420;0.433;336.000
2810.00; 5.410;0.433;337.000
2820.00; 5.400;0.433;338.000
2830.00; 5.405;0.433;340.000
2840.00; 5.415;0.433;341.000
2850.00; 5.390;0.433;342.000
2860.00; 5.400;0.433;343.000
2870.00; 5.405;0.433;344.000
2880.00; 5.410;0.433;345.000
2890.00; 5.410;0.433;347.000
2900.00; 5.405;0.433;348.000
2910.00; 5.405;0.433;349.000
2920.00; 5.415;0.433;350.000
2930.00; 5.420;0.433;351.000
2940.00; 5.415;0.433;352.000
2950.00; 5.410;0.433;354.000
2960.00; 5.415;0.433;355.000
2970.00; 5.415;0.433;356.000
2980.00; 5.415;0.433;357.000
2990.00; 5.415;0.433;358.000
3000.00; 5.410;0.433;360.000
3010.00; 5.425;0.433;362.000
3020.00; 5.420;0.433;363.000
3030.00; 5.415;0.433;364.000
3040.00; 5.415;0.433;365.000
3050.00; 5.415;0.433;366.000
3060.00; 5.415;0.433;367.000
3070.00; 5.425;0.433;369.000
3080.00; 5.430;0.433;370.000
3090.00; 5.430;0.433;371.000
3100.00; 5.415;0.433;372.000
3110.00; 5.415;0.433;373.000
3120.00; 5.420;0.433;374.000
3130.00; 5.430;0.433;376.000
3140.00; 5.415;0.433;377.000
3150.00; 5.435;0.433;378.000
3160.00; 5.425;0.433;379.000
3170.00; 5.435;0.433;380.000
3180.00; 5.430;0.433;381.000
3190.00; 5.420;0.433;383.000
3200.00; 5.420;0.433;384.000
3210.00; 5.435;0.433;385.000
3220.00; 5.435;0.433;386.000
3230.00; 5.430;0.433;387.000
3240.00; 5.430;0.433;388.000
3250.00; 5.420;0.433;390.000
3260.00; 5.430;0.433;391.000
3270.00; 5.430;0.433;392.000
3280.00; 5.425;0.433;393.000
3290.00; 5.435;0.433;394.000
3300.00; 5.435;0.433;396.000
3310.00; 5.430;0.433;398.000
3320.00; 5.430;0.433;399.000
3330.00; 5.430;0.433;400.000
3340.00; 5.435;0.433;401.000
3350.00; 5.420;0.433;402.000
3360.00; 5.430;0.433;403.000
3370.00; 5.445;0.433;405.000
3380.00; 5.425;0.433;406.000
3390.00; 5.450;0.433;407.000
3400.00; 5.445;0.433;408.000
3410.00; 5.430;0.433;409.000
3420.00; 5.445;0.433;410.000
3430.00; 5.450;0.433;412.000
3440.00; 5.430;0.433;413.000
3450.00; 5.425;0.433;414.000
3460.00; 5.440;0.433;415.000
3470.00; 5.440;0.433;416.000
3480.00; 5.450;0.433;417.000
3490.00; 5.435;0.433;419.000
3500.00; 5.435;0.433;420.000
3510.00; 5.445;0.433;421.000
3520.00; 5.445;0.433;422.000
3530.00; 5.445;0.433;423.000
3540.00; 5.455;0.433;424.000
3550.00; 5.435;0.433;426.000
3560.00; 5.460;0.433;427.000
3570.00; 5.455;0.433;428.000
3580.00; 5.445;0.433;429.000
3590.00; 5.450;0.433;430.000
3600.00; 5.445;0.433;433.000
3610.00; 5.450;0.433;435.000
3620.00; 5.460;0.433;436.000
3630.00; 5.460;0.433;437.000
3640.00; 5.460;0.433;438.000
3650.00; 5.460;0.433;439.000
3660.00; 5.450;0.433;440.000
3670.00; 5.465;0.433;442.000
3680.00; 5.460;0.433;443.000
3690.00; 5.435;0.433;444.000
3700.00; 5.465;0.433;445.000
3710.00; 5.455;0.433;446.000
3720.00; 5.475;0.433;447.000
3730.00; 5.460;0.433;449.000
3740.00; 5.460;0.433;450.000
3750.00; 5.450;0.433;451.000
3760.00; 5.465;0.433;452.000
3770.00; 5.475;0.433;453.000
3780.00; 5.460;0.433;454.000
3790.00; 5.465;0.433;456.000
3800.00; 5.465;0.433;457.000
3810.00; 5.475;0.433;458.000
3820.00; 5.460;0.433;459.000
3830.00; 5.455;0.433;460.000
3840.00; 5.470;0.433;461.000
3850.00; 5.465;0.433;463.000
3860.00; 5.460;0.433;464.000
3870.00; 5.455;0.433;465.000
3880.00; 5.460;0.433;466.000
3890.00; 5.465;0.433;467.000
3900.00; 5.470;0.433;469.000
3910.00; 5.465;0.433;471.000
3920.00; 5.465;0.433;472.000
3930.00; 5.470;0.433;473.000
3940.00; 5.475;0.433;474.000
3950.00; 5.475;0.433;475.000
3960.00; 5.475;0.433;476.000
3970.00; 5.465;0.433;478.000
3980.00; 5.475;0.433;479.000
3990.00; 5.475;0.433;480.000
4000.00; 5.480;0.433;481.000
4010.00; 5.475;0.433;482.000
4020.00; 5.470;0.433;483.000
4030.00; 5.480;0.433;485.000
4040.00; 5.480;0.433;486.000
4050.00; 5.475;0.433;487.000
4060.00; 5.475;0.433;488.000
4070.00; 5.480;0.433;489.000
4080.00; 5.480;0.433;490.000
4090.00; 5.465;0.433;492.000
4100.00; 5.485;0.433;493.000
4110.00; 5.465;0.433;494.000
4120.00; 5.480;0.433;495.000
4130.00; 5.485;0.433;496.000
4140.00; 5.485;0.433;497.000
4150.00; 5.490;0.433;499.000
4160.00; 5.480;0.433;500.000
4170.00; 5.485;0.433;501.000
4180.00; 5.480;0.433;502.000
4190.00; 5.480;0.433;503.000
4200.00; 5.470;0.433;505.000
4210.00; 5.480;0.433;507.000
4220.00; 5.490;0.433;508.000
4230.00; 5.495;0.433;509.000
4240.00; 5.490;0.433;510.000
4250.00; 5.495;0.433;511.000
4260.00; 5.480;0.433;512.000
4270.00; 5.475;0.433;514.000
4280.00; 5.490;0.433;515.000
4290.00; 5.500;0.433;516.000
4300.00; 5.490;0.433;517.000
4310.00; 5.485;0.433;518.000
4320.00; 5.490;0.433;519.000
4330.00; 5.495;0.433;521.000
4340.00; 5.490;0.433;522.000
4350.00; 5.485;0.433;523.000
4360.00; 5.490;0.433;524.000
4370.00; 5.480;0.433;525.000
4380.00; 5.490;0.433;526.000
4390.00; 5.490;0.433;528.000
4400.00; 5.475;0.433;529.000
4410.00; 5.490;0.433;530.000
4420.00; 5.505;0.433;531.000
4430.00; 5.500;0.433;532.000
4440.00; 5.485;0.433;533.000
4450.00; 5.495;0.433;535.000
4460.00; 5.500;0.433;536.000
4470.00; 5.505;0.433;537.000
4480.00; 5.500;0.433;538.000
4490.00; 5.505;0.433;539.000
4500.00; 5.505;0.433;541.000
4510.00; 5.510;0.433;543.000
4520.00; 5.505;0.433;544.000
4530.00; 5.475;0.433;545.000
4540.00; 5.505;0.433;546.000
4550.00; 5.515;0.433;547.000
4560.00; 5.505;0.433;548.000
4570.00; 5.505;0.433;550.000
4580.00; 5.490;0.433;551.000
4590.00; 5.500;0.433;552.000
4600.00; 5.505;0.433;553.000
4610.00; 5.505;0.433;554.000
4620.00; 5.500;0.433;555.000
4630.00; 5.515;0.433;557.000
4640.00; 5.505;0.433;558.000
4650.00; 5.515;0.433;559.000
4660.00; 5.495;0.433;560.000
4670.00; 5.520;0.433;561.000
4680.00; 5.505;0.433;562.000
4690.00; 5.525;0.433;564.000
4700.00; 5.510;0.433;565.000
4710.00; 5.520;0.433;566.000
4720.00; 5.520;0.433;567.000
4730.00; 5.515;0.433;568.000
4740.00; 5.510;0.433;569.000
4750.00; 5.515;0.433;571.000
4760.00; 5.520;0.433;572.000
4770.00; 5.520;0.433;573.000
4780.00; 5.510;0.433;574.000
4790.00; 5.520;0.433;575.000
4800.00; 5.515;0.433;577.000
4810.00; 5.515;0.433;579.000
4820.00; 5.520;0.433;580.000
4830.00; 5.520;0.433;581.000
4840.00; 5.525;0.433;582.000
4850.00; 5.520;0.433;583.000
4860.00; 5.535;0.433;584.000
4870.00; 5.520;0.433;586.000
4880.00; 5.535;0.433;587.000
4890.00; 5.520;0.433;588.000
4900.00; 5.510;0.433;589.000
4910.00; 5.535;0.433;590.000
4920.00; 5.530;0.433;591.000
4930.00; 5.535;0.433;593.000
4940.00; 5.510;0.433;594.000
4950.00; 5.535;0.433;595.000
4960.00; 5.530;0.433;596.000
4970.00; 5.525;0.433;597.000
4980.00; 5.525;0.433;598.000
4990.00; 5.515;0.433;600.000
5000.00; 5.525;0.433;601.000
5010.00; 5.530;0.433;602.000
5020.00; 5.540;0.433;603.000
5030.00; 5.520;0.433;604.000
5040.00; 5.530;0.433;605.000
5050.00; 5.530;0.433;607.000
5060.00; 5.535;0.433;608.000
5070.00; 5.525;0.433;609.000
5080.00; 5.535;0.433;610.000
5090.00; 5.525;0.433;611.000
5100.00; 5.540;0.433;613.000
5110.00; 5.520;0.433;615.000
5120.00; 5.540;0.433;616.000
5130.00; 5.550;0.433;617.000
5140.00; 5.550;0.433;618.000
5150.00; 5.535;0.433;619.000
5160.00; 5.550;0.433;620.000
5170.00; 5.535;0.433;622.000
5180.00; 5.540;0.433;623.000
5190.00; 5.540;0.433;624.000
5200.00; 5.540;0.433;625.000
5210.00; 5.540;0.433;626.000
5220.00; 5.545;0.433;627.000
5230.00; 5.555;0.433;629.000
5240.00; 5.555;0.433;630.000
5250.00; 5.550;0.433;631.000
5260.00; 5.555;0.433;632.000
5270.00; 5.535;0.433;633.000
5280.00; 5.550;0.433;634.000
5290.00; 5.530;0.433;635.000
5300.00; 5.535;0.433;637.000
5310.00; 5.555;0.433;638.000
5320.00; 5.545;0.433;639.000
5330.00; 5.550;0.433;640.000
5340.00; 5.550;0.433;641.000
5350.00; 5.555;0.433;642.000
5360.00; 5.535;0.433;644.000
5370.00; 5.555;0.433;645.000
5380.00; 5.555;0.433;646.000
5390.00; 5.550;0.433;647.000
5400.00; 5.550;0.433;649.000
5410.00; 5.550;0.433;650.000
5420.00; 5.550;0.433;652.000
5430.00; 5.550;0.433;653.000
5440.00; 5.560;0.433;654.000
5450.00; 5.555;0.433;655.000
5460.00; 5.565;0.433;656.000
5470.00; 5.565;0.433;657.000
5480.00; 5.560;0.433;659.000
5490.00; 5.565;0.433;660.000
5500.00; 5.565;0.433;661.000
5510.00; 5.555;0.433;662.000
5520.00; 5.555;0.433;663.000
5530.00; 5.560;0.433;664.000
5540.00; 5.565;0.433;666.000
5550.00; 5.570;0.433;667.000
5560.00; 5.565;0.433;668.000
5570.00; 5.570;0.433;669.000
5580.00; 5.555;0.433;670.000
5590.00; 5.570;0.433;671.000
5600.00; 5.570;0.433;673.000
5610.00; 5.570;0.433;674.000
5620.00; 5.585;0.433;675.000
5630.00; 5.570;0.433;676.000
5640.00; 5.570;0.433;677.000
5650.00; 5.555;0.433;678.000
5660.00; 5.545;0.433;680.000
5670.00; 5.560;0.433;681.000
5680.00; 5.570;0.433;682.000
5690.00; 5.585;0.433;683.000
5700.00; 5.585;0.433;685.000
5710.00; 5.570;0.433;686.000
5720.00; 5.560;0.433;688.000
5730.00; 5.570;0.433;689.000
5740.00; 5.575;0.433;690.000
5750.00; 5.580;0.433;691.000
5760.00; 5.585;0.433;692.000
5770.00; 5.585;0.433;693.000
5780.00; 5.570;0.433;695.000
5790.00; 5.580;0.433;696.000
5800.00; 5.580;0.433;697.000
5810.00; 5.580;0.433;698.000
5820.00; 5.585;0.433;699.000
5830.00; 5.570;0.433;700.000
5840.00; 5.585;0.433;702.000
5850.00; 5.575;0.433;703.000
5860.00; 5.585;0.433;704.000
5870.00; 5.595;0.433;705.000
5880.00; 5.585;0.433;706.000
5890.00; 5.585;0.433;707.000
5900.00; 5.595;0.433;709.000
5910.00; 5.595;0.433;710.000
5920.00; 5.595;0.433;711.000
5930.00; 5.595;0.433;712.000
5940.00; 5.615;0.433;713.000
5950.00; 5.580;0.433;714.000
5960.00; 5.600;0.433;716.000
5970.00; 5.605;0.433;717.000
5980.00; 5.585;0.433;718.000
5990.00; 5.600;0.433;719.000
6000.00; 5.600;0.433;721.000
6010.00; 5.585;0.433;722.000
6020.00; 5.590;0.433;724.000
6030.00; 5.590;0.433;725.000
6040.00; 5.610;0.433;726.000
6050.00; 5.600;0.433;727.000
6060.00; 5.600;0.433;728.000
6070.00; 5.605;0.433;729.000
6080.00; 5.600;0.433;731.000
6090.00; 5.600;0.433;732.000
6100.00; 5.600;0.433;733.000
6110.00; 5.615;0.433;734.000
6120.00; 5.605;0.433;735.000
6130.00; 5.590;0.433;736.000
6140.00; 5.595;0.433;738.000
6150.00; 5.625;0.433;739.000
6160.00; 5.610;0.433;740.000
6170.00; 5.600;0.433;741.000
6180.00; 5.605;0.433;742.000
6190.00; 5.615;0.433;743.000
6200.00; 5.615;0.433;745.000
6210.00; 5.625;0.433;746.000
6220.00; 5.610;0.433;747.000
6230.00; 5.615;0.433;748.000
6240.00; 5.610;0.433;749.000
6250.00; 5.620;0.433;750.000
6260.00; 5.595;0.433;752.000
6270.00; 5.620;0.433;753.000
6280.00; 5.625;0.433;754.000
6290.00; 5.610;0.433;755.000
6300.00; 5.615;0.433;757.000
6310.00; 5.625;0.433;758.000
6320.00; 5.625;0.433;760.000
6330.00; 5.635;0.433;761.000
6340.00; 5.625;0.433;762.000
6350.00; 5.630;0.433;763.000
6360.00; 5.635;0.433;764.000
6370.00; 5.630;0.433;765.000
6380.00; 5.620;0.433;767.000
6390.00; 5.620;0.433;768.000
6400.00; 5.640;0.433;769.000
6410.00; 5.625;0.433;770.000
6420.00; 5.630;0.433;771.000
6430.00; 5.650;0.433;772.000
6440.00; 5.625;0.433;774.000
6450.00; 5.630;0.433;775.000
6460.00; 5.630;0.433;776.000
6470.00; 5.630;0.433;777.000
6480.00; 5.640;0.433;778.000
6490.00; 5.635;0.433;779.000
6500.00; 5.645;0.433;781.000
6510.00; 5.630;0.433;782.000
6520.00; 5.640;0.433;783.000
6530.00; 5.660;0.433;784.000
6540.00; 5.640;0.433;785.000
6550.00; 5.640;0.433;786.000
6560.00; 5.645;0.433;788.000
6570.00; 5.645;0.433;789.000
6580.00; 5.645;0.433;790.000
6590.00; 5.640;0.433;791.000
6600.00; 5.645;0.433;793.000
6610.00; 5.650;0.433;794.000
6620.00; 5.650;0.433;796.000
6630.00; 5.655;0.433;797.000
6640.00; 5.650;0.433;798.000
6650.00; 5.645;0.433;799.000
6660.00; 5.660;0.433;800.000
6670.00; 5.655;0.433;801.000
6680.00; 5.655;0.433;803.000
6690.00; 5.645;0.433;804.000
6700.00; 5.640;0.433;805.000
6710.00; 5.660;0.433;806.000
6720.00; 5.660;0.433;807.000
6730.00; 5.660;0.433;808.000
6740.00; 5.660;0.433;810.000
6750.00; 5.670;0.433;811.000
6760.00; 5.655;0.433;812.000
6770.00; 5.670;0.433;813.000
6780.00; 5.655;0.433;814.000
6790.00; 5.670;0.433;815.000
6800.00; 5.660;0.433;817.000
6810.00; 5.660;0.433;818.000
6820.00; 5.660;0.433;819.000
6830.00; 5.665;0.433;820.000
6840.00; 5.655;0.433;821.000
6850.00; 5.670;0.433;822.000
6860.00; 5.660;0.433;824.000
6870.00; 5.675;0.433;825.000
6880.00; 5.685;0.433;826.000
6890.00; 5.675;0.433;827.000
6900.00; 5.675;0.433;829.000
6910.00; 5.685;0.433;830.000
6920.00; 5.675;0.433;832.000
6930.00; 5.675;0.433;833.000
6940.00; 5.670;0.433;834.000
6950.00; 5.690;0.433;835.000
6960.00; 5.685;0.433;836.000
6970.00; 5.690;0.433;837.000
6980.00; 5.695;0.433;839.000
6990.00; 5.685;0.433;840.000
7000.00; 5.675;0.433;841.000
7010.00; 5.685;0.433;842.000
7020.00; 5.690;0.433;843.000
7030.00; 5.700;0.433;844.000
7040.00; 5.685;0.433;846.000
7050.00; 5.700;0.433;847.000
7060.00; 5.690;0.433;848.000
7070.00; 5.685;0.433;849.000
7080.00; 5.690;0.433;850.000
7090.00; 5.700;0.433;851.000
7100.00; 5.695;0.433;853.000
7110.00; 5.700;0.433;854.000
7120.00; 5.685;0.433;855.000
7130.00; 5.700;0.433;856.000
7140.00; 5.685;0.433;857.000
7150.00; 5.705;0.433;858.000
7160.00; 5.700;0.433;860.000
7170.00; 5.690;0.433;861.000
7180.00; 5.720;0.433;862.000
7190.00; 5.705;0.433;863.000
7200.00; 5.690;0.433;866.000
7210.00; 5.705;0.433;867.000
7220.00; 5.700;0.433;869.000
7230.00; 5.715;0.433;870.000
7240.00; 5.710;0.433;871.000
7250.00; 5.710;0.433;872.000
7260.00; 5.700;0.433;873.000
7270.00; 5.715;0.433;874.000
7280.00; 5.710;0.433;876.000
7290.00; 5.715;0.433;877.000
7300.00; 5.710;0.433;878.000
7310.00; 5.715;0.433;879.000
7320.00; 5.720;0.433;880.000
7330.00; 5.705;0.433;881.000
7340.00; 5.725;0.433;883.000
7350.00; 5.715;0.433;884.000
7360.00; 5.730;0.433;885.000
7370.00; 5.730;0.433;886.000
7380.00; 5.725;0.433;887.000
7390.00; 5.720;0.433;888.000
7400.00; 5.730;0.433;890.000
7410.00; 5.715;0.433;891.000
7420.00; 5.720;0.433;892.000
7430.00; 5.715;0.433;893.000
7440.00; 5.730;0.433;894.000
7450.00; 5.745;0.433;895.000
7460.00; 5.720;0.433;897.000
7470.00; 5.735;0.433;898.000
7480.00; 5.730;0.433;899.000
7490.00; 5.735;0.433;900.000
7500.00; 5.745;0.433;902.000
7510.00; 5.735;0.433;903.000
7520.00; 5.740;0.433;905.000
7530.00; 5.730;0.433;906.000
7540.00; 5.735;0.433;907.000
7550.00; 5.735;0.433;908.000
7560.00; 5.760;0.433;909.000
7570.00; 5.730;0.433;910.000
7580.00; 5.735;0.433;912.000
7590.00; 5.735;0.433;913.000
7600.00; 5.750;0.433;914.000
7610.00; 5.755;0.433;915.000
7620.00; 5.745;0.433;916.000
7630.00; 5.760;0.433;917.000
7640.00; 5.750;0.433;919.000
7650.00; 5.745;0.433;920.000
7660.00; 5.755;0.433;921.000
7670.00; 5.755;0.433;922.000
7680.00; 5.755;0.433;923.000
7690.00; 5.765;0.433;924.000
7700.00; 5.745;0.433;926.000
7710.00; 5.745;0.433;927.000
7720.00; 5.765;0.433;928.000
7730.00; 5.750;0.433;929.000
7740.00; 5.750;0.433;930.000
7750.00; 5.760;0.433;931.000
7760.00; 5.755;0.433;933.000
7770.00; 5.760;0.433;934.000
7780.00; 5.755;0.433;935.000
7790.00; 5.760;0.433;936.000
7800.00; 5.770;0.433;938.000
7810.00; 5.755;0.433;939.000
7820.00; 5.750;0.433;941.000
7830.00; 5.760;0.433;942.000
7840.00; 5.775;0.433;943.000
7850.00; 5.770;0.433;944.000
7860.00; 5.780;0.433;945.000
7870.00; 5.770;0.433;946.000
7880.00; 5.765;0.433;948.000
7890.00; 5.765;0.433;949.000
7900.00; 5.765;0.433;950.000
7910.00; 5.780;0.433;951.000
7920.00; 5.765;0.433;952.000
7930.00; 5.775;0.433;953.000
7940.00; 5.775;0.433;955.000
7950.00; 5.775;0.433;956.000
7960.00; 5.775;0.433;957.000
7970.00; 5.780;0.433;958.000
7980.00; 5.770;0.433;959.000
7990.00; 5.775;0.433;960.000
8000.00; 5.780;0.433;962.000
8010.00; 5.780;0.433;963.000
8020.00; 5.785;0.433;964.000
8030.00; 5.795;0.433;965.000
8040.00; 5.780;0.433;966.000
8050.00; 5.795;0.433;967.000
8060.00; 5.795;0.433;969.000
8070.00; 5.785;0.433;970.000
8080.00; 5.780;0.433;971.000
8090.00; 5.785;0.433;972.000
8100.00; 5.790;0.433;974.000
8110.00; 5.795;0.433;975.000
8120.00; 5.790;0.433;977.000
8130.00; 5.790;0.433;978.000
8140.00; 5.775;0.433;979.000
8150.00; 5.790;0.433;980.000
8160.00; 5.790;0.433;981.000
8170.00; 5.785;0.433;982.000
8180.00; 5.790;0.433;984.000
8190.00; 5.795;0.433;985.000
8200.00; 5.805;0.433;986.000
8210.00; 5.820;0.433;987.000
8220.00; 5.805;0.433;988.000
8230.00; 5.795;0.433;989.000
8240.00; 5.790;0.433;991.000
8250.00; 5.805;0.433;992.000
8260.00; 5.810;0.433;993.000
8270.00; 5.800;0.433;994.000
8280.00; 5.795;0.433;995.000
8290.00; 5.805;0.433;996.000
8300.00; 5.815;0.433;998.000
8310.00; 5.810;0.433;999.000
8320.00; 5.810;0.433;1000.000
8330.00; 5.810;0.433;1001.000
8340.00; 5.810;0.433;1002.000
8350.00; 5.810;0.433;1003.000
8360.00; 5.820;0.433;1005.000
8370.00; 5.820;0.433;1006.000
8380.00; 5.820;0.433;1007.000
8390.00; 5.820;0.433;1008.000
8400.00; 5.815;0.433;1010.000
8410.00; 5.825;0.433;1011.000
8420.00; 5.815;0.433;1013.000
8430.00; 5.825;0.433;1014.000
8440.00; 5.820;0.433;1015.000
8450.00; 5.815;0.433;1016.000
8460.00; 5.820;0.433;1017.000
8470.00; 5.830;0.433;1018.000
8480.00; 5.840;0.433;1020.000
8490.00; 5.825;0.433;1021.000
8500.00; 5.840;0.433;1022.000
8510.00; 5.825;0.433;1023.000
8520.00; 5.840;0.433;1024.000
8530.00; 5.830;0.433;1025.000
8540.00; 5.825;0.433;1027.000
8550.00; 5.850;0.433;1028.000
8560.00; 5.840;0.433;1029.000
8570.00; 5.840;0.433;1030.000
8580.00; 5.840;0.433;1031.000
8590.00; 5.835;0.433;1032.000
8600.00; 5.845;0.433;1034.000
8610.00; 5.830;0.433;1035.000
8620.00; 5.835;0.433;1036.000
8630.00; 5.840;0.433;1037.000
8640.00; 5.835;0.433;1038.000
8650.00; 5.840;0.433;1039.000
8660.00; 5.855;0.433;1041.000
8670.00; 5.845;0.433;1042.000
8680.00; 5.840;0.433;1043.000
8690.00; 5.850;0.433;1044.000
8700.00; 5.855;0.433;1046.000
8710.00; 5.855;0.433;1047.000
8720.00; 5.855;0.433;1049.000
8730.00; 5.880;0.433;1050.000
8740.00; 5.855;0.433;1051.000
8750.00; 5.855;0.433;1052.000
8760.00; 5.855;0.433;1053.000
8770.00; 5.865;0.433;1054.000
8780.00; 5.865;0.433;1056.000
8790.00; 5.865;0.433;1057.000
8800.00; 5.850;0.433;1058.000
8810.00; 5.865;0.433;1059.000
8820.00; 5.855;0.433;1060.000
8830.00; 5.865;0.433;1061.000
8840.00; 5.865;0.433;1063.000
8850.00; 5.875;0.433;1064.000
8860.00; 5.865;0.433;1065.000
8870.00; 5.870;0.433;1066.000
8880.00; 5.870;0.433;1067.000
8890.00; 5.875;0.433;1068.000
8900.00; 5.865;0.433;1070.000
8910.00; 5.880;0.433;1071.000
8920.00; 5.875;0.433;1072.000
8930.00; 5.880;0.433;1073.000
8940.00; 5.890;0.433;1074.000
8950.00; 5.885;0.433;1075.000
8960.00; 5.870;0.433;1077.000
8970.00; 5.880;0.433;1078.000
8980.00; 5.900;0.433;1079.000
8990.00; 5.895;0.433;1080.000
9000.00; 5.885;0.433;1082.000
9010.00; 5.880;0.433;1083.000
9020.00; 5.890;0.433;1085.000
9030.00; 5.895;0.433;1086.000
9040.00; 5.895;0.433;1087.000
9050.00; 5.895;0.433;1088.000
9060.00; 5.895;0.433;1089.000
9070.00; 5.895;0.433;1090.000
9080.00; 5.900;0.433;1092.000
9090.00; 5.905;0.433;1093.000
9100.00; 5.895;0.433;1094.000
9110.00; 5.895;0.433;1095.000
9120.00; 5.905;0.433;1096.000
9130.00; 5.900;0.433;1097.000
9140.00; 5.900;0.433;1099.000
9150.00; 5.925;0.433;1100.000
9160.00; 5.910;0.433;1101.000
9170.00; 5.915;0.433;1102.000
9180.00; 5.915;0.433;1103.000
9190.00; 5.915;0.433;1104.000
9200.00; 5.915;0.433;1106.000
9210.00; 5.910;0.433;1107.000
9220.00; 5.910;0.433;1108.000
9230.00; 5.915;0.433;1109.000
9240.00; 5.915;0.433;1110.000
9250.00; 5.925;0.433;1111.000
9260.00; 5.920;0.433;1113.000
9270.00; 5.925;0.433;1114.000
9280.00; 5.925;0.433;1115.000
9290.00; 5.915;0.433;1116.000
9300.00; 5.935;0.433;1118.000
9310.00; 5.920;0.433;1119.000
9320.00; 5.925;0.433;1121.000
9330.00; 5.925;0.433;1122.000
9340.00; 5.935;0.433;1123.000
9350.00; 5.935;0.433;1124.000
9360.00; 5.940;0.433;1125.000
9370.00; 5.935;0.433;1126.000
9380.00; 5.945;0.433;1128.000
9390.00; 5.935;0.433;1129.000
9400.00; 5.940;0.433;1130.000
9410.00; 5.940;0.433;1131.000
9420.00; 5.925;0.433;1132.000
9430.00; 5.940;0.433;1133.000
9440.00; 5.945;0.433;1135.000
9450.00; 5.945;0.433;1136.000
9460.00; 5.950;0.433;1137.000
9470.00; 5.950;0.433;1138.000
9480.00; 5.945;0.433;1139.000
9490.00; 5.940;0.433;1140.000
9500.00; 5.945;0.433;1142.000
9510.00; 5.945;0.433;1143.000
9520.00; 5.955;0.433;1144.000
9530.00; 5.940;0.433;1145.000
9540.00; 5.950;0.433;1146.000
9550.00; 5.950;0.433;1147.000
9560.00; 5.955;0.433;1149.000
9570.00; 5.955;0.433;1150.000
9580.00; 5.955;0.433;1151.000
9590.00; 5.965;0.433;1152.000
9600.00; 5.950;0.433;1154.000
9610.00; 5.955;0.433;1155.000
9620.00; 5.955;0.433;1157.000
9630.00; 5.955;0.433;1158.000
9640.00; 5.960;0.433;1159.000
9650.00; 5.970;0.433;1160.000
9660.00; 5.980;0.433;1161.000
9670.00; 5.970;0.433;1162.000
9680.00; 5.960;0.433;1164.000
9690.00; 5.970;0.433;1165.000
9700.00; 5.960;0.433;1166.000
9710.00; 5.955;0.433;1167.000
9720.00; 5.965;0.433;1168.000
9730.00; 5.985;0.433;1169.000
9740.00; 5.965;0.433;1171.000
9750.00; 5.975;0.433;1172.000
9760.00; 5.980;0.433;1173.000
9770.00; 5.980;0.433;1174.000
9780.00; 5.975;0.433;1175.000
9790.00; 5.980;0.433;1176.000
9800.00; 5.985;0.433;1178.000
9810.00; 5.995;0.433;1179.000
9820.00; 5.980;0.433;1180.000
9830.00; 5.990;0.433;1181.000
9840.00; 5.985;0.433;1182.000
9850.00; 5.980;0.433;1183.000
9860.00; 5.975;0.433;1185.000
9870.00; 5.985;0.433;1186.000
9880.00; 5.985;0.433;1187.000
9890.00; 5.970;0.433;1188.000
9900.00; 5.965;0.433;1190.000
9910.00; 6.005;0.433;1191.000
9920.00; 6.000;0.433;1193.000
9930.00; 5.990;0.433;1194.000
9940.00; 5.980;0.433;1195.000
9950.00; 6.000;0.433;1196.000
9960.00; 5.990;0.433;1197.000
9970.00; 5.980;0.433;1198.000
9980.00; 6.005;0.433;1200.000
9990.00; 5.990;0.433;1201.000
10000.00; 6.000;0.433;1202.000
10010.00; 6.000;0.433;1203.000
10020.00; 6.005;0.433;1204.000
10030.00; 6.000;0.433;1205.000
10040.00; 6.000;0.433;1207.000
10050.00; 6.010;0.433;1208.000
10060.00; 6.005;0.433;1209.000
10070.00; 6.000;0.433;1210.000
10080.00; 6.015;0.433;1211.000
10090.00; 6.000;0.433;1212.000
10100.00; 6.005;0.433;1214.000
10110.00; 6.015;0.433;1215.000
10120.00; 6.015;0.433;1216.000
10130.00; 6.005;0.433;1217.000
10140.00; 6.015;0.433;1218.000
10150.00; 5.990;0.433;1219.000
10160.00; 6.015;0.433;1221.000
10170.00; 6.015;0.433;1222.000
10180.00; 6.010;0.433;1223.000
10190.00; 6.020;0.433;1224.000
10200.00; 6.005;0.433;1226.000
10210.00; 5.995;0.433;1227.000
10220.00; 6.015;0.433;1229.000
10230.00; 6.010;0.433;1230.000
10240.00; 6.015;0.433;1231.000
10250.00; 6.020;0.433;1232.000
10260.00; 6.000;0.433;1233.000
10270.00; 6.020;0.433;1234.000
10280.00; 6.010;0.433;1236.000
10290.00; 6.020;0.433;1237.000
10300.00; 6.020;0.433;1238.000
10310.00; 6.005;0.433;1239.000
10320.00; 6.020;0.433;1240.000
10330.00; 6.000;0.433;1241.000
10340.00; 6.020;0.433;1243.000
10350.00; 6.025;0.433;1244.000
10360.00; 6.020;0.433;1245.000
10370.00; 6.020;0.433;1246.000
10380.00; 6.025;0.433;1247.000
10390.00; 6.000;0.433;1248.000
10400.00; 6.020;0.433;1250.000
10410.00; 6.020;0.433;1251.000
10420.00; 6.030;0.433;1252.000
10430.00; 6.020;0.433;1253.000
10440.00; 6.025;0.433;1254.000
10450.00; 6.020;0.433;1255.000
10460.00; 6.030;0.433;1257.000
10470.00; 6.025;0.433;1258.000
10480.00; 6.035;0.433;1259.000
10490.00; 6.015;0.433;1260.000
10500.00; 6.030;0.433;1262.000
10510.00; 6.020;0.433;1263.000
10520.00; 6.020;0.433;1265.000
10530.00; 6.025;0.433;1266.000
10540.00; 6.015;0.433;1267.000
10550.00; 6.025;0.433;1268.000
10560.00; 6.025;0.433;1269.000
10570.00; 6.015;0.433;1270.000
10580.00; 6.030;0.433;1272.000
10590.00; 6.010;0.433;1273.000
10600.00; 6.030;0.433;1274.000
10610.00; 6.020;0.433;1275.000
10620.00; 6.035;0.433;1276.000
10630.00; 6.015;0.433;1277.000
10640.00; 6.040;0.433;1279.000
10650.00; 6.035;0.433;1280.000
10660.00; 6.025;0.433;1281.000
10670.00; 6.030;0.433;1282.000
10680.00; 6.035;0.433;1283.000
10690.00; 6.035;0.433;1284.000
10700.00; 6.035;0.433;1286.000
10710.00; 6.030;0.433;1287.000
10720.00; 6.035;0.433;1288.000
10730.00; 6.035;0.433;1289.000
10740.00; 6.030;0.433;1290.000
10750.00; 6.030;0.433;1291.000
10760.00; 6.035;0.433;1293.000
10770.00; 6.025;0.433;1294.000
10780.00; 6.030;0.433;1295.000
10790.00; 6.035;0.433;1296.000
10800.00; 6.030;0.433;1299.000
10810.00; 6.020;0.433;1300.000
10820.00; 6.035;0.433;1302.000
10830.00; 6.035;0.433;1303.000
10840.00; 6.030;0.433;1304.000
10850.00; 6.035;0.433;1305.000
10860.00; 6.035;0.433;1306.000
10870.00; 6.020;0.433;1307.000
10880.00; 6.035;0.433;1309.000
10890.00; 6.035;0.433;1310.000
10900.00; 6.030;0.433;1311.000
10910.00; 6.030;0.433;1312.000
10920.00; 6.020;0.433;1313.000
10930.00; 6.035;0.433;1314.000
10940.00; 6.030;0.433;1316.000
10950.00; 6.030;0.433;1317.000
10960.00; 6.030;0.433;1318.000
10970.00; 6.015;0.433;1319.000
10980.00; 6.020;0.433;1320.000
10990.00; 6.035;0.433;1321.000
11000.00; 6.030;0.433;1323.000
11010.00; 6.030;0.433;1324.000
11020.00; 6.015;0.433;1325.000
11030.00; 6.045;0.433;1326.000
11040.00; 6.030;0.433;1327.000
11050.00; 6.020;0.433;1328.000
11060.00; 6.030;0.433;1330.000
11070.00; 6.035;0.433;1331.000
11080.00; 6.030;0.433;1332.000
11090.00; 6.035;0.433;1333.000
11100.00; 6.030;0.433;1335.000
11110.00; 6.030;0.433;1336.000
11120.00; 6.015;0.433;1338.000
11130.00; 6.030;0.433;1339.000
11140.00; 6.015;0.433;1340.000
11150.00; 6.020;0.433;1341.000
11160.00; 6.015;0.433;1342.000
11170.00; 6.010;0.433;1343.000
11180.00; 6.030;0.433;1345.000
11190.00; 6.005;0.433;1346.000
11200.00; 6.020;0.433;1347.000
11210.00; 6.030;0.433;1348.000
11220.00; 6.025;0.433;1349.000
11230.00; 6.015;0.433;1350.000
11240.00; 6.025;0.433;1352.000
11250.00; 6.015;0.433;1353.000
11260.00; 6.030;0.433;1354.000
11270.00; 6.015;0.433;1355.000
11280.00; 6.015;0.433;1356.000
11290.00; 6.030;0.433;1357.000
11300.00; 6.010;0.433;1359.000
11310.00; 6.015;0.433;1360.000
11320.00; 6.010;0.433;1361.000
11330.00; 6.020;0.433;1362.000
11340.00; 6.020;0.433;1363.000
11350.00; 6.005;0.433;1364.000
11360.00; 6.015;0.433;1366.000
11370.00; 6.005;0.433;1367.000
11380.00; 6.005;0.433;1368.000
11390.00; 6.010;0.433;1369.000
11400.00; 6.015;0.433;1371.000
11410.00; 6.010;0.433;1372.000
11420.00; 6.020;0.433;1374.000
11430.00; 6.000;0.433;1375.000
11440.00; 6.015;0.433;1376.000
11450.00; 6.000;0.433;1377.000
11460.00; 5.985;0.433;1378.000
11470.00; 6.000;0.433;1379.000
11480.00; 6.010;0.433;1381.000
11490.00; 6.005;0.433;1382.000
11500.00; 5.995;0.433;1383.000
11510.00; 6.000;0.433;1384.000
11520.00; 6.015;0.433;1385.000
11530.00; 5.995;0.433;1386.000
11540.00; 6.010;0.433;1388.000
11550.00; 6.005;0.433;1389.000
11560.00; 6.015;0.433;1390.000
11570.00; 5.990;0.433;1391.000
11580.00; 5.990;0.433;1392.000
11590.00; 6.000;0.433;1393.000
11600.00; 6.010;0.433;1395.000
11610.00; 6.005;0.433;1396.000
11620.00; 5.980;0.433;1397.000
11630.00; 5.990;0.433;1398.000
11640.00; 5.975;0.433;1399.000
11650.00; 5.985;0.433;1400.000
11660.00; 6.000;0.433;1402.000
11670.00; 5.985;0.433;1403.000
11680.00; 5.990;0.433;1404.000
11690.00; 5.985;0.433;1405.000
11700.00; 5.990;0.433;1407.000
11710.00; 5.985;0.433;1408.000
11720.00; 5.970;0.433;1410.000
11730.00; 5.990;0.433;1411.000
11740.00; 5.965;0.433;1412.000
11750.00; 5.980;0.433;1413.000
11760.00; 5.985;0.433;1414.000
11770.00; 5.990;0.433;1415.000
11780.00; 5.975;0.433;1417.000
11790.00; 5.985;0.433;1418.000
11800.00; 5.985;0.433;1419.000
11810.00; 5.985;0.433;1420.000
11820.00; 5.985;0.433;1421.000
11830.00; 5.975;0.433;1422.000
11840.00; 5.980;0.433;1424.000
11850.00; 5.975;0.433;1425.000
11860.00; 5.975;0.433;1426.000
11870.00; 5.975;0.433;1427.000
11880.00; 5.960;0.433;1428.000
11890.00; 5.975;0.433;1429.000
11900.00; 5.970;0.433;1431.000
11910.00; 5.975;0.433;1432.000
11920.00; 5.970;0.433;1433.000
11930.00; 5.970;0.433;1434.000
11940.00; 5.955;0.433;1435.000
11950.00; 5.955;0.433;1436.000
11960.00; 5.965;0.433;1438.000
