AkkuMasterC4
Zeit [sec];Spannung [V];Strom [A];Ladung [mAh]
0.00; 4.545;0.150;0.000
10.00; 4.620;0.150;0.000
20.00; 4.670;0.150;1.000
30.00; 4.665;0.150;1.000
40.00; 4.685;0.150;1.000
50.00; 4.715;0.150;2.000
60.00; 4.720;0.150;2.000
70.00; 4.740;0.150;2.000
80.00; 4.755;0.150;3.000
90.00; 4.755;0.150;3.000
100.00; 4.770;0.150;3.000
110.00; 4.785;0.150;4.000
120.00; 4.800;0.150;5.000
130.00; 4.815;0.150;5.000
140.00; 4.800;0.150;6.000
150.00; 4.810;0.150;6.000
160.00; 4.830;0.150;6.000
170.00; 4.830;0.150;7.000
180.00; 4.845;0.150;7.000
190.00; 4.855;0.150;7.000
200.00; 4.860;0.150;8.000
210.00; 4.880;0.150;8.000
220.00; 4.865;0.150;8.000
230.00; 4.875;0.150;9.000
240.00; 4.895;0.150;10.000
250.00; 4.910;0.150;10.000
260.00; 4.905;0.150;11.000
270.00; 4.890;0.150;11.000
280.00; 4.910;0.150;11.000
290.00; 4.920;0.150;12.000
300.00; 4.920;0.150;12.000
310.00; 4.935;0.150;12.000
320.00; 4.930;0.150;13.000
330.00; 4.925;0.150;13.000
340.00; 4.950;0.150;13.000
350.00; 4.945;0.150;14.000
360.00; 4.960;0.150;15.000
370.00; 4.965;0.150;15.000
380.00; 4.955;0.150;16.000
390.00; 4.975;0.150;16.000
400.00; 4.985;0.150;16.000
410.00; 4.975;0.150;17.000
420.00; 4.980;0.150;17.000
430.00; 4.970;0.150;17.000
440.00; 4.995;0.150;18.000
450.00; 5.010;0.150;18.000
460.00; 5.010;0.150;18.000
470.00; 5.005;0.150;19.000
480.00; 5.005;0.150;20.000
490.00; 5.015;0.150;20.000
500.00; 5.010;0.150;21.000
510.00; 5.020;0.150;21.000
520.00; 5.015;0.150;21.000
530.00; 5.030;0.150;22.000
540.00; 5.010;0.150;22.000
550.00; 5.025;0.150;22.000
560.00; 5.035;0.150;23.000
570.00; 5.040;0.150;23.000
580.00; 5.050;0.150;23.000
590.00; 5.015;0.150;24.000
600.00; 5.050;0.150;25.000
610.00; 5.045;0.150;25.000
620.00; 5.045;0.150;26.000
630.00; 5.055;0.150;26.000
640.00; 5.060;0.150;26.000
650.00; 5.085;0.150;27.000
660.00; 5.075;0.150;27.000
670.00; 5.075;0.150;27.000
680.00; 5.075;0.150;28.000
690.00; 5.070;0.150;28.000
700.00; 5.075;0.150;28.000
710.00; 5.085;0.150;29.000
720.00; 5.080;0.150;30.000
730.00; 5.100;0.150;30.000
740.00; 5.085;0.150;31.000
750.00; 5.085;0.150;31.000
760.00; 5.085;0.150;31.000
770.00; 5.100;0.150;32.000
780.00; 5.100;0.150;32.000
790.00; 5.105;0.150;32.000
800.00; 5.095;0.150;33.000
810.00; 5.095;0.150;33.000
820.00; 5.105;0.150;33.000
830.00; 5.105;0.150;34.000
840.00; 5.100;0.150;35.000
850.00; 5.120;0.150;35.000
860.00; 5.125;0.150;36.000
870.00; 5.120;0.150;36.000
880.00; 5.125;0.150;36.000
890.00; 5.130;0.150;37.000
900.00; 5.130;0.150;37.000
910.00; 5.135;0.150;37.000
920.00; 5.130;0.150;38.000
930.00; 5.130;0.150;38.000
940.00; 5.135;0.150;38.000
950.00; 5.135;0.150;39.000
960.00; 5.145;0.150;40.000
970.00; 5.140;0.150;40.000
980.00; 5.135;0.150;41.000
990.00; 5.155;0.150;41.000
1000.00; 5.160;0.150;41.000
1010.00; 5.145;0.150;42.000
1020.00; 5.150;0.150;42.000
1030.00; 5.155;0.150;42.000
1040.00; 5.145;0.150;43.000
1050.00; 5.165;0.150;43.000
1060.00; 5.160;0.150;43.000
1070.00; 5.160;0.150;44.000
1080.00; 5.150;0.150;45.000
1090.00; 5.160;0.150;45.000
1100.00; 5.160;0.150;46.000
1110.00; 5.160;0.150;46.000
1120.00; 5.170;0.150;46.000
1130.00; 5.165;0.150;47.000
1140.00; 5.180;0.150;47.000
1150.00; 5.190;0.150;47.000
1160.00; 5.180;0.150;48.000
1170.00; 5.165;0.150;48.000
1180.00; 5.190;0.150;48.000
1190.00; 5.190;0.150;49.000
1200.00; 5.190;0.150;50.000
1210.00; 5.190;0.150;50.000
1220.00; 5.190;0.150;51.000
1230.00; 5.195;0.150;51.000
1240.00; 5.180;0.150;51.000
1250.00; 5.190;0.150;52.000
1260.00; 5.195;0.150;52.000
1270.00; 5.195;0.150;52.000
1280.00; 5.205;0.150;53.000
1290.00; 5.205;0.150;53.000
1300.00; 5.210;0.150;53.000
1310.00; 5.210;0.150;54.000
1320.00; 5.205;0.150;55.000
1330.00; 5.210;0.150;55.000
1340.00; 5.210;0.150;56.000
1350.00; 5.225;0.150;56.000
1360.00; 5.205;0.150;56.000
1370.00; 5.205;0.150;57.000
1380.00; 5.220;0.150;57.000
1390.00; 5.210;0.150;57.000
1400.00; 5.230;0.150;58.000
1410.00; 5.215;0.150;58.000
1420.00; 5.230;0.150;58.000
1430.00; 5.225;0.150;59.000
1440.00; 5.240;0.150;60.000
1450.00; 5.210;0.150;60.000
1460.00; 5.235;0.150;61.000
1470.00; 5.230;0.150;61.000
1480.00; 5.220;0.150;61.000
1490.00; 5.235;0.150;62.000
1500.00; 5.240;0.150;62.000
1510.00; 5.250;0.150;62.000
1520.00; 5.235;0.150;63.000
1530.00; 5.245;0.150;63.000
1540.00; 5.255;0.150;63.000
1550.00; 5.240;0.150;64.000
1560.00; 5.260;0.150;65.000
1570.00; 5.250;0.150;65.000
1580.00; 5.240;0.150;66.000
1590.00; 5.250;0.150;66.000
1600.00; 5.260;0.150;66.000
1610.00; 5.245;0.150;67.000
1620.00; 5.255;0.150;67.000
1630.00; 5.255;0.150;67.000
1640.00; 5.245;0.150;68.000
1650.00; 5.255;0.150;68.000
1660.00; 5.255;0.150;68.000
1670.00; 5.255;0.150;69.000
1680.00; 5.265;0.150;70.000
1690.00; 5.265;0.150;70.000
1700.00; 5.255;0.150;71.000
1710.00; 5.255;0.150;71.000
1720.00; 5.270;0.150;71.000
1730.00; 5.280;0.150;72.000
1740.00; 5.270;0.150;72.000
1750.00; 5.270;0.150;72.000
1760.00; 5.270;0.150;73.000
1770.00; 5.260;0.150;73.000
1780.00; 5.280;0.150;73.000
1790.00; 5.275;0.150;74.000
1800.00; 5.275;0.150;75.000
1810.00; 5.265;0.150;75.000
1820.00; 5.275;0.150;76.000
1830.00; 5.285;0.150;76.000
1840.00; 5.285;0.150;76.000
1850.00; 5.295;0.150;77.000
1860.00; 5.285;0.150;77.000
1870.00; 5.295;0.150;77.000
1880.00; 5.280;0.150;78.000
1890.00; 5.290;0.150;78.000
1900.00; 5.290;0.150;78.000
1910.00; 5.295;0.150;79.000
1920.00; 5.295;0.150;80.000
1930.00; 5.285;0.150;80.000
1940.00; 5.285;0.150;81.000
1950.00; 5.290;0.150;81.000
1960.00; 5.300;0.150;81.000
1970.00; 5.300;0.150;82.000
1980.00; 5.300;0.150;82.000
1990.00; 5.300;0.150;82.000
2000.00; 5.285;0.150;83.000
2010.00; 5.295;0.150;83.000
2020.00; 5.300;0.150;83.000
2030.00; 5.305;0.150;84.000
2040.00; 5.300;0.150;85.000
2050.00; 5.315;0.150;85.000
2060.00; 5.300;0.150;86.000
2070.00; 5.310;0.150;86.000
2080.00; 5.325;0.150;86.000
2090.00; 5.300;0.150;87.000
2100.00; 5.315;0.150;87.000
2110.00; 5.320;0.150;87.000
2120.00; 5.305;0.150;88.000
2130.00; 5.310;0.150;88.000
2140.00; 5.315;0.150;88.000
2150.00; 5.310;0.150;89.000
2160.00; 5.315;0.150;90.000
2170.00; 5.305;0.150;90.000
2180.00; 5.315;0.150;91.000
2190.00; 5.315;0.150;91.000
2200.00; 5.310;0.150;91.000
2210.00; 5.300;0.150;92.000
2220.00; 5.310;0.150;92.000
2230.00; 5.315;0.150;92.000
2240.00; 5.320;0.150;93.000
2250.00; 5.330;0.150;93.000
2260.00; 5.310;0.150;93.000
2270.00; 5.335;0.150;94.000
2280.00; 5.325;0.150;95.000
2290.00; 5.325;0.150;95.000
2300.00; 5.330;0.150;96.000
2310.00; 5.315;0.150;96.000
2320.00; 5.315;0.150;96.000
2330.00; 5.330;0.150;97.000
2340.00; 5.340;0.150;97.000
2350.00; 5.330;0.150;97.000
2360.00; 5.320;0.150;98.000
2370.00; 5.325;0.150;98.000
2380.00; 5.340;0.150;98.000
2390.00; 5.335;0.150;99.000
2400.00; 5.330;0.150;100.000
2410.00; 5.340;0.150;100.000
2420.00; 5.345;0.150;101.000
2430.00; 5.325;0.150;101.000
2440.00; 5.340;0.150;101.000
2450.00; 5.355;0.150;102.000
2460.00; 5.340;0.150;102.000
2470.00; 5.345;0.150;102.000
2480.00; 5.340;0.150;103.000
2490.00; 5.330;0.150;103.000
2500.00; 5.345;0.150;103.000
2510.00; 5.345;0.150;104.000
2520.00; 5.340;0.150;105.000
2530.00; 5.340;0.150;105.000
2540.00; 5.335;0.150;106.000
2550.00; 5.330;0.150;106.000
2560.00; 5.345;0.150;106.000
2570.00; 5.350;0.150;107.000
2580.00; 5.345;0.150;107.000
2590.00; 5.335;0.150;107.000
2600.00; 5.365;0.150;108.000
2610.00; 5.340;0.150;108.000
2620.00; 5.355;0.150;108.000
2630.00; 5.350;0.150;109.000
2640.00; 5.360;0.150;110.000
2650.00; 5.355;0.150;110.000
2660.00; 5.350;0.150;111.000
2670.00; 5.360;0.150;111.000
2680.00; 5.360;0.150;111.000
2690.00; 5.345;0.150;112.000
2700.00; 5.360;0.150;112.000
2710.00; 5.360;0.150;112.000
2720.00; 5.360;0.150;113.000
2730.00; 5.345;0.150;113.000
2740.00; 5.350;0.150;113.000
2750.00; 5.350;0.150;114.000
2760.00; 5.340;0.150;115.000
2770.00; 5.365;0.150;115.000
2780.00; 5.365;0.150;116.000
2790.00; 5.370;0.150;116.000
2800.00; 5.355;0.150;116.000
2810.00; 5.365;0.150;117.000
2820.00; 5.370;0.150;117.000
2830.00; 5.355;0.150;117.000
2840.00; 5.365;0.150;118.000
2850.00; 5.365;0.150;118.000
2860.00; 5.360;0.150;118.000
2870.00; 5.370;0.150;119.000
2880.00; 5.355;0.150;120.000
2890.00; 5.365;0.150;120.000
2900.00; 5.355;0.150;121.000
2910.00; 5.360;0.150;121.000
2920.00; 5.355;0.150;121.000
2930.00; 5.370;0.150;122.000
2940.00; 5.370;0.150;122.000
2950.00; 5.370;0.150;122.000
2960.00; 5.385;0.150;123.000
2970.00; 5.365;0.150;123.000
2980.00; 5.380;0.150;123.000
2990.00; 5.370;0.150;124.000
3000.00; 5.375;0.150;125.000
3010.00; 5.375;0.150;125.000
3020.00; 5.375;0.150;126.000
3030.00; 5.385;0.150;126.000
3040.00; 5.380;0.150;126.000
3050.00; 5.375;0.150;127.000
3060.00; 5.370;0.150;127.000
3070.00; 5.380;0.150;127.000
3080.00; 5.385;0.150;128.000
3090.00; 5.385;0.150;128.000
3100.00; 5.375;0.150;128.000
3110.00; 5.370;0.150;129.000
3120.00; 5.375;0.150;130.000
3130.00; 5.380;0.150;130.000
3140.00; 5.390;0.150;131.000
3150.00; 5.390;0.150;131.000
3160.00; 5.385;0.150;131.000
3170.00; 5.390;0.150;132.000
3180.00; 5.390;0.150;132.000
3190.00; 5.385;0.150;132.000
3200.00; 5.390;0.150;133.000
3210.00; 5.385;0.150;133.000
3220.00; 5.385;0.150;133.000
3230.00; 5.390;0.150;134.000
3240.00; 5.375;0.150;135.000
3250.00; 5.390;0.150;135.000
3260.00; 5.385;0.150;136.000
3270.00; 5.390;0.150;136.000
3280.00; 5.400;0.150;136.000
3290.00; 5.395;0.150;137.000
3300.00; 5.385;0.150;137.000
3310.00; 5.395;0.150;137.000
3320.00; 5.390;0.150;138.000
3330.00; 5.400;0.150;138.000
3340.00; 5.390;0.150;138.000
3350.00; 5.400;0.150;139.000
3360.00; 5.395;0.150;140.000
3370.00; 5.400;0.150;140.000
3380.00; 5.395;0.150;141.000
3390.00; 5.385;0.150;141.000
3400.00; 5.400;0.150;141.000
3410.00; 5.390;0.150;142.000
3420.00; 5.390;0.150;142.000
3430.00; 5.390;0.150;142.000
3440.00; 5.410;0.150;143.000
3450.00; 5.395;0.150;143.000
3460.00; 5.395;0.150;143.000
3470.00; 5.405;0.150;144.000
3480.00; 5.405;0.150;145.000
3490.00; 5.405;0.150;145.000
3500.00; 5.400;0.150;146.000
3510.00; 5.400;0.150;146.000
3520.00; 5.405;0.150;146.000
3530.00; 5.405;0.150;147.000
3540.00; 5.405;0.150;147.000
3550.00; 5.405;0.150;147.000
3560.00; 5.400;0.150;148.000
3570.00; 5.420;0.150;148.000
3580.00; 5.405;0.150;148.000
3590.00; 5.395;0.150;149.000
3600.00; 5.400;0.150;150.000
3610.00; 5.400;0.150;150.000
3620.00; 5.405;0.150;151.000
3630.00; 5.410;0.150;151.000
3640.00; 5.415;0.150;151.000
3650.00; 5.410;0.150;152.000
3660.00; 5.400;0.150;152.000
3670.00; 5.405;0.150;152.000
3680.00; 5.415;0.150;153.000
3690.00; 5.400;0.150;153.000
3700.00; 5.420;0.150;153.000
3710.00; 5.410;0.150;154.000
3720.00; 5.405;0.150;155.000
3730.00; 5.410;0.150;155.000
3740.00; 5.415;0.150;156.000
3750.00; 5.405;0.150;156.000
3760.00; 5.410;0.150;156.000
3770.00; 5.415;0.150;157.000
3780.00; 5.420;0.150;157.000
3790.00; 5.415;0.150;157.000
3800.00; 5.415;0.150;158.000
3810.00; 5.410;0.150;158.000
3820.00; 5.420;0.150;158.000
3830.00; 5.415;0.150;159.000
3840.00; 5.400;0.150;160.000
3850.00; 5.415;0.150;160.000
3860.00; 5.415;0.150;161.000
3870.00; 5.415;0.150;161.000
3880.00; 5.410;0.150;161.000
3890.00; 5.425;0.150;162.000
3900.00; 5.420;0.150;162.000
3910.00; 5.415;0.150;162.000
3920.00; 5.420;0.150;163.000
3930.00; 5.415;0.150;163.000
3940.00; 5.410;0.150;163.000
3950.00; 5.420;0.150;164.000
3960.00; 5.430;0.150;165.000
3970.00; 5.410;0.150;165.000
3980.00; 5.425;0.150;166.000
3990.00; 5.415;0.150;166.000
4000.00; 5.420;0.150;166.000
4010.00; 5.430;0.150;167.000
4020.00; 5.420;0.150;167.000
4030.00; 5.430;0.150;167.000
4040.00; 5.430;0.150;168.000
4050.00; 5.415;0.150;168.000
4060.00; 5.430;0.150;168.000
4070.00; 5.425;0.150;169.000
4080.00; 5.425;0.150;170.000
4090.00; 5.410;0.150;170.000
4100.00; 5.420;0.150;171.000
4110.00; 5.430;0.150;171.000
4120.00; 5.420;0.150;171.000
4130.00; 5.430;0.150;172.000
4140.00; 5.425;0.150;172.000
4150.00; 5.430;0.150;172.000
4160.00; 5.420;0.150;173.000
4170.00; 5.435;0.150;173.000
4180.00; 5.435;0.150;173.000
4190.00; 5.425;0.150;174.000
4200.00; 5.430;0.150;175.000
4210.00; 5.435;0.150;175.000
4220.00; 5.415;0.150;176.000
4230.00; 5.435;0.150;176.000
4240.00; 5.450;0.150;176.000
4250.00; 5.435;0.150;177.000
4260.00; 5.435;0.150;177.000
4270.00; 5.440;0.150;177.000
4280.00; 5.430;0.150;178.000
4290.00; 5.435;0.150;178.000
4300.00; 5.430;0.150;178.000
4310.00; 5.435;0.150;179.000
4320.00; 5.435;0.150;180.000
4330.00; 5.440;0.150;180.000
4340.00; 5.435;0.150;181.000
4350.00; 5.435;0.150;181.000
4360.00; 5.440;0.150;181.000
4370.00; 5.445;0.150;182.000
4380.00; 5.435;0.150;182.000
4390.00; 5.445;0.150;182.000
4400.00; 5.435;0.150;183.000
4410.00; 5.420;0.150;183.000
4420.00; 5.440;0.150;183.000
4430.00; 5.435;0.150;184.000
4440.00; 5.435;0.150;185.000
4450.00; 5.445;0.150;185.000
4460.00; 5.440;0.150;186.000
4470.00; 5.430;0.150;186.000
4480.00; 5.445;0.150;186.000
4490.00; 5.435;0.150;187.000
4500.00; 5.445;0.150;187.000
4510.00; 5.435;0.150;187.000
4520.00; 5.440;0.150;188.000
4530.00; 5.440;0.150;188.000
4540.00; 5.445;0.150;188.000
4550.00; 5.440;0.150;189.000
4560.00; 5.445;0.150;190.000
4570.00; 5.435;0.150;190.000
4580.00; 5.425;0.150;191.000
4590.00; 5.450;0.150;191.000
4600.00; 5.440;0.150;191.000
4610.00; 5.440;0.150;192.000
4620.00; 5.460;0.150;192.000
4630.00; 5.450;0.150;192.000
4640.00; 5.450;0.150;193.000
4650.00; 5.445;0.150;193.000
4660.00; 5.440;0.150;193.000
4670.00; 5.445;0.150;194.000
4680.00; 5.450;0.150;195.000
4690.00; 5.445;0.150;195.000
4700.00; 5.445;0.150;196.000
4710.00; 5.450;0.150;196.000
4720.00; 5.455;0.150;196.000
4730.00; 5.450;0.150;197.000
4740.00; 5.460;0.150;197.000
4750.00; 5.450;0.150;197.000
4760.00; 5.460;0.150;198.000
4770.00; 5.445;0.150;198.000
4780.00; 5.440;0.150;198.000
4790.00; 5.450;0.150;199.000
4800.00; 5.445;0.150;200.000
4810.00; 5.445;0.150;200.000
4820.00; 5.450;0.150;201.000
4830.00; 5.460;0.150;201.000
4840.00; 5.450;0.150;201.000
4850.00; 5.455;0.150;202.000
4860.00; 5.460;0.150;202.000
4870.00; 5.450;0.150;202.000
4880.00; 5.455;0.150;203.000
4890.00; 5.455;0.150;203.000
4900.00; 5.445;0.150;203.000
4910.00; 5.450;0.150;204.000
4920.00; 5.450;0.150;205.000
4930.00; 5.460;0.150;205.000
4940.00; 5.450;0.150;206.000
4950.00; 5.460;0.150;206.000
4960.00; 5.450;0.150;206.000
4970.00; 5.460;0.150;207.000
4980.00; 5.465;0.150;207.000
4990.00; 5.445;0.150;207.000
5000.00; 5.465;0.150;208.000
5010.00; 5.450;0.150;208.000
5020.00; 5.445;0.150;208.000
5030.00; 5.470;0.150;209.000
5040.00; 5.465;0.150;210.000
5050.00; 5.455;0.150;210.000
5060.00; 5.460;0.150;211.000
5070.00; 5.455;0.150;211.000
5080.00; 5.460;0.150;211.000
5090.00; 5.475;0.150;212.000
5100.00; 5.455;0.150;212.000
5110.00; 5.465;0.150;212.000
5120.00; 5.460;0.150;213.000
5130.00; 5.450;0.150;213.000
5140.00; 5.460;0.150;213.000
5150.00; 5.465;0.150;214.000
5160.00; 5.450;0.150;215.000
5170.00; 5.445;0.150;215.000
5180.00; 5.465;0.150;216.000
5190.00; 5.475;0.150;216.000
5200.00; 5.465;0.150;216.000
5210.00; 5.460;0.150;217.000
5220.00; 5.460;0.150;217.000
5230.00; 5.460;0.150;217.000
5240.00; 5.450;0.150;218.000
5250.00; 5.470;0.150;218.000
5260.00; 5.475;0.150;218.000
5270.00; 5.460;0.150;219.000
5280.00; 5.470;0.150;220.000
5290.00; 5.475;0.150;220.000
5300.00; 5.450;0.150;221.000
5310.00; 5.470;0.150;221.000
5320.00; 5.465;0.150;221.000
5330.00; 5.465;0.150;222.000
5340.00; 5.460;0.150;222.000
5350.00; 5.465;0.150;222.000
5360.00; 5.465;0.150;223.000
5370.00; 5.475;0.150;223.000
5380.00; 5.475;0.150;223.000
5390.00; 5.465;0.150;224.000
5400.00; 5.475;0.150;225.000
5410.00; 5.475;0.150;225.000
5420.00; 5.490;0.150;226.000
5430.00; 5.485;0.150;226.000
5440.00; 5.460;0.150;226.000
5450.00; 5.465;0.150;227.000
5460.00; 5.475;0.150;227.000
5470.00; 5.460;0.150;227.000
5480.00; 5.465;0.150;228.000
5490.00; 5.475;0.150;228.000
5500.00; 5.470;0.150;228.000
5510.00; 5.480;0.150;229.000
5520.00; 5.475;0.150;230.000
5530.00; 5.475;0.150;230.000
5540.00; 5.460;0.150;231.000
5550.00; 5.470;0.150;231.000
5560.00; 5.470;0.150;231.000
5570.00; 5.480;0.150;232.000
5580.00; 5.485;0.150;232.000
5590.00; 5.470;0.150;232.000
5600.00; 5.475;0.150;233.000
5610.00; 5.480;0.150;233.000
5620.00; 5.475;0.150;233.000
5630.00; 5.480;0.150;234.000
5640.00; 5.490;0.150;235.000
5650.00; 5.465;0.150;235.000
5660.00; 5.460;0.150;236.000
5670.00; 5.475;0.150;236.000
5680.00; 5.495;0.150;236.000
5690.00; 5.485;0.150;237.000
5700.00; 5.475;0.150;237.000
5710.00; 5.485;0.150;237.000
5720.00; 5.475;0.150;238.000
5730.00; 5.480;0.150;238.000
5740.00; 5.470;0.150;238.000
5750.00; 5.485;0.150;239.000
5760.00; 5.485;0.150;240.000
5770.00; 5.480;0.150;240.000
5780.00; 5.485;0.150;241.000
5790.00; 5.490;0.150;241.000
5800.00; 5.495;0.150;241.000
5810.00; 5.485;0.150;242.000
5820.00; 5.485;0.150;242.000
5830.00; 5.480;0.150;242.000
5840.00; 5.480;0.150;243.000
5850.00; 5.495;0.150;243.000
5860.00; 5.485;0.150;243.000
5870.00; 5.480;0.150;244.000
5880.00; 5.485;0.150;245.000
5890.00; 5.490;0.150;245.000
5900.00; 5.480;0.150;246.000
5910.00; 5.480;0.150;246.000
5920.00; 5.480;0.150;246.000
5930.00; 5.480;0.150;247.000
5940.00; 5.475;0.150;247.000
5950.00; 5.500;0.150;247.000
5960.00; 5.480;0.150;248.000
5970.00; 5.485;0.150;248.000
5980.00; 5.485;0.150;248.000
5990.00; 5.490;0.150;249.000
6000.00; 5.490;0.150;250.000
6010.00; 5.490;0.150;250.000
6020.00; 5.495;0.150;251.000
6030.00; 5.480;0.150;251.000
6040.00; 5.485;0.150;251.000
6050.00; 5.490;0.150;252.000
6060.00; 5.495;0.150;252.000
6070.00; 5.485;0.150;252.000
6080.00; 5.485;0.150;253.000
6090.00; 5.495;0.150;253.000
6100.00; 5.480;0.150;253.000
6110.00; 5.480;0.150;254.000
6120.00; 5.500;0.150;255.000
6130.00; 5.485;0.150;255.000
6140.00; 5.490;0.150;256.000
6150.00; 5.495;0.150;256.000
6160.00; 5.505;0.150;256.000
6170.00; 5.480;0.150;257.000
6180.00; 5.480;0.150;257.000
6190.00; 5.490;0.150;257.000
6200.00; 5.490;0.150;258.000
6210.00; 5.500;0.150;258.000
6220.00; 5.495;0.150;258.000
6230.00; 5.495;0.150;259.000
6240.00; 5.490;0.150;260.000
6250.00; 5.485;0.150;260.000
6260.00; 5.490;0.150;261.000
6270.00; 5.490;0.150;261.000
6280.00; 5.495;0.150;261.000
6290.00; 5.475;0.150;262.000
6300.00; 5.500;0.150;262.000
6310.00; 5.500;0.150;262.000
6320.00; 5.510;0.150;263.000
6330.00; 5.500;0.150;263.000
6340.00; 5.495;0.150;263.000
6350.00; 5.490;0.150;264.000
6360.00; 5.500;0.150;265.000
6370.00; 5.505;0.150;265.000
6380.00; 5.495;0.150;266.000
6390.00; 5.505;0.150;266.000
6400.00; 5.510;0.150;266.000
6410.00; 5.500;0.150;267.000
6420.00; 5.505;0.150;267.000
6430.00; 5.505;0.150;267.000
6440.00; 5.485;0.150;268.000
6450.00; 5.495;0.150;268.000
6460.00; 5.495;0.150;268.000
6470.00; 5.520;0.150;269.000
6480.00; 5.490;0.150;270.000
6490.00; 5.510;0.150;270.000
6500.00; 5.495;0.150;271.000
6510.00; 5.510;0.150;271.000
6520.00; 5.505;0.150;271.000
6530.00; 5.510;0.150;272.000
6540.00; 5.505;0.150;272.000
6550.00; 5.510;0.150;272.000
6560.00; 5.520;0.150;273.000
6570.00; 5.510;0.150;273.000
6580.00; 5.510;0.150;273.000
6590.00; 5.510;0.150;274.000
6600.00; 5.505;0.150;275.000
6610.00; 5.510;0.150;275.000
6620.00; 5.505;0.150;276.000
6630.00; 5.500;0.150;276.000
6640.00; 5.520;0.150;276.000
6650.00; 5.500;0.150;277.000
6660.00; 5.510;0.150;277.000
6670.00; 5.500;0.150;277.000
6680.00; 5.495;0.150;278.000
6690.00; 5.505;0.150;278.000
6700.00; 5.475;0.150;278.000
6710.00; 5.505;0.150;279.000
6720.00; 5.505;0.150;280.000
6730.00; 5.520;0.150;280.000
6740.00; 5.505;0.150;281.000
6750.00; 5.510;0.150;281.000
6760.00; 5.510;0.150;281.000
6770.00; 5.510;0.150;282.000
6780.00; 5.505;0.150;282.000
6790.00; 5.505;0.150;282.000
6800.00; 5.505;0.150;283.000
6810.00; 5.505;0.150;283.000
6820.00; 5.495;0.150;283.000
6830.00; 5.510;0.150;284.000
6840.00; 5.510;0.150;285.000
6850.00; 5.505;0.150;285.000
6860.00; 5.510;0.150;286.000
6870.00; 5.510;0.150;286.000
6880.00; 5.505;0.150;286.000
6890.00; 5.520;0.150;287.000
6900.00; 5.510;0.150;287.000
6910.00; 5.495;0.150;287.000
6920.00; 5.510;0.150;288.000
6930.00; 5.505;0.150;288.000
6940.00; 5.525;0.150;288.000
6950.00; 5.535;0.150;289.000
6960.00; 5.515;0.150;290.000
6970.00; 5.520;0.150;290.000
6980.00; 5.510;0.150;291.000
6990.00; 5.520;0.150;291.000
7000.00; 5.505;0.150;291.000
7010.00; 5.515;0.150;292.000
7020.00; 5.520;0.150;292.000
7030.00; 5.510;0.150;292.000
7040.00; 5.510;0.150;293.000
7050.00; 5.505;0.150;293.000
7060.00; 5.515;0.150;293.000
7070.00; 5.525;0.150;294.000
7080.00; 5.515;0.150;295.000
7090.00; 5.515;0.150;295.000
7100.00; 5.510;0.150;296.000
7110.00; 5.510;0.150;296.000
7120.00; 5.500;0.150;296.000
7130.00; 5.510;0.150;297.000
7140.00; 5.515;0.150;297.000
7150.00; 5.515;0.150;297.000
7160.00; 5.520;0.150;298.000
7170.00; 5.525;0.150;298.000
7180.00; 5.510;0.150;298.000
7190.00; 5.505;0.150;299.000
7200.00; 5.520;0.150;300.000
7210.00; 5.505;0.150;300.000
7220.00; 5.530;0.150;301.000
7230.00; 5.520;0.150;301.000
7240.00; 5.520;0.150;301.000
7250.00; 5.525;0.150;302.000
7260.00; 5.520;0.150;302.000
7270.00; 5.525;0.150;302.000
7280.00; 5.520;0.150;303.000
7290.00; 5.505;0.150;303.000
7300.00; 5.525;0.150;303.000
7310.00; 5.525;0.150;304.000
7320.00; 5.525;0.150;305.000
7330.00; 5.510;0.150;305.000
7340.00; 5.510;0.150;306.000
7350.00; 5.535;0.150;306.000
7360.00; 5.525;0.150;306.000
7370.00; 5.525;0.150;307.000
7380.00; 5.515;0.150;307.000
7390.00; 5.510;0.150;307.000
7400.00; 5.520;0.150;308.000
7410.00; 5.525;0.150;308.000
7420.00; 5.520;0.150;308.000
7430.00; 5.510;0.150;309.000
7440.00; 5.520;0.150;310.000
7450.00; 5.525;0.150;310.000
7460.00; 5.520;0.150;311.000
7470.00; 5.525;0.150;311.000
7480.00; 5.520;0.150;311.000
7490.00; 5.510;0.150;312.000
7500.00; 5.500;0.150;312.000
7510.00; 5.525;0.150;312.000
7520.00; 5.525;0.150;313.000
7530.00; 5.535;0.150;313.000
7540.00; 5.520;0.150;313.000
7550.00; 5.540;0.150;314.000
7560.00; 5.530;0.150;315.000
7570.00; 5.520;0.150;315.000
7580.00; 5.520;0.150;316.000
7590.00; 5.520;0.150;316.000
7600.00; 5.520;0.150;316.000
7610.00; 5.545;0.150;317.000
7620.00; 5.535;0.150;317.000
7630.00; 5.530;0.150;317.000
7640.00; 5.525;0.150;318.000
7650.00; 5.530;0.150;318.000
7660.00; 5.525;0.150;318.000
7670.00; 5.520;0.150;319.000
7680.00; 5.520;0.150;320.000
7690.00; 5.525;0.150;320.000
7700.00; 5.535;0.150;321.000
7710.00; 5.525;0.150;321.000
7720.00; 5.525;0.150;321.000
7730.00; 5.510;0.150;322.000
7740.00; 5.535;0.150;322.000
7750.00; 5.515;0.150;322.000
7760.00; 5.530;0.150;323.000
7770.00; 5.525;0.150;323.000
7780.00; 5.540;0.150;323.000
7790.00; 5.515;0.150;324.000
7800.00; 5.535;0.150;325.000
7810.00; 5.530;0.150;325.000
7820.00; 5.525;0.150;326.000
7830.00; 5.535;0.150;326.000
7840.00; 5.530;0.150;326.000
7850.00; 5.540;0.150;327.000
7860.00; 5.520;0.150;327.000
7870.00; 5.525;0.150;327.000
7880.00; 5.525;0.150;328.000
7890.00; 5.520;0.150;328.000
7900.00; 5.535;0.150;328.000
7910.00; 5.530;0.150;329.000
7920.00; 5.545;0.150;330.000
7930.00; 5.535;0.150;330.000
7940.00; 5.535;0.150;331.000
7950.00; 5.540;0.150;331.000
7960.00; 5.525;0.150;331.000
7970.00; 5.535;0.150;332.000
7980.00; 5.540;0.150;332.000
7990.00; 5.525;0.150;332.000
8000.00; 5.540;0.150;333.000
8010.00; 5.530;0.150;333.000
8020.00; 5.540;0.150;333.000
8030.00; 5.550;0.150;334.000
8040.00; 5.525;0.150;335.000
8050.00; 5.540;0.150;335.000
8060.00; 5.540;0.150;336.000
8070.00; 5.525;0.150;336.000
8080.00; 5.535;0.150;336.000
8090.00; 5.525;0.150;337.000
8100.00; 5.530;0.150;337.000
8110.00; 5.535;0.150;337.000
8120.00; 5.535;0.150;338.000
8130.00; 5.540;0.150;338.000
8140.00; 5.535;0.150;338.000
8150.00; 5.535;0.150;339.000
8160.00; 5.530;0.150;340.000
8170.00; 5.530;0.150;340.000
8180.00; 5.540;0.150;341.000
8190.00; 5.540;0.150;341.000
8200.00; 5.540;0.150;341.000
8210.00; 5.540;0.150;342.000
8220.00; 5.530;0.150;342.000
8230.00; 5.535;0.150;342.000
8240.00; 5.540;0.150;343.000
8250.00; 5.530;0.150;343.000
8260.00; 5.530;0.150;343.000
8270.00; 5.550;0.150;344.000
8280.00; 5.535;0.150;345.000
8290.00; 5.525;0.150;345.000
8300.00; 5.535;0.150;346.000
8310.00; 5.525;0.150;346.000
8320.00; 5.540;0.150;346.000
8330.00; 5.535;0.150;347.000
8340.00; 5.545;0.150;347.000
8350.00; 5.540;0.150;347.000
8360.00; 5.535;0.150;348.000
8370.00; 5.545;0.150;348.000
8380.00; 5.540;0.150;348.000
8390.00; 5.550;0.150;349.000
8400.00; 5.550;0.150;350.000
8410.00; 5.530;0.150;350.000
8420.00; 5.520;0.150;351.000
8430.00; 5.530;0.150;351.000
8440.00; 5.550;0.150;351.000
8450.00; 5.545;0.150;352.000
8460.00; 5.535;0.150;352.000
8470.00; 5.525;0.150;352.000
8480.00; 5.540;0.150;353.000
8490.00; 5.535;0.150;353.000
8500.00; 5.540;0.150;353.000
8510.00; 5.550;0.150;354.000
8520.00; 5.545;0.150;355.000
8530.00; 5.540;0.150;355.000
8540.00; 5.550;0.150;356.000
8550.00; 5.540;0.150;356.000
8560.00; 5.535;0.150;356.000
8570.00; 5.555;0.150;357.000
8580.00; 5.550;0.150;357.000
8590.00; 5.550;0.150;357.000
8600.00; 5.535;0.150;358.000
8610.00; 5.545;0.150;358.000
8620.00; 5.545;0.150;358.000
8630.00; 5.545;0.150;359.000
8640.00; 5.540;0.150;360.000
8650.00; 5.555;0.150;360.000
8660.00; 5.550;0.150;361.000
8670.00; 5.550;0.150;361.000
8680.00; 5.550;0.150;361.000
8690.00; 5.540;0.150;362.000
8700.00; 5.535;0.150;362.000
8710.00; 5.550;0.150;362.000
8720.00; 5.560;0.150;363.000
8730.00; 5.540;0.150;363.000
8740.00; 5.550;0.150;363.000
8750.00; 5.550;0.150;364.000
8760.00; 5.545;0.150;365.000
8770.00; 5.550;0.150;365.000
8780.00; 5.525;0.150;366.000
8790.00; 5.555;0.150;366.000
8800.00; 5.545;0.150;366.000
8810.00; 5.550;0.150;367.000
8820.00; 5.550;0.150;367.000
8830.00; 5.530;0.150;367.000
8840.00; 5.550;0.150;368.000
8850.00; 5.555;0.150;368.000
8860.00; 5.540;0.150;368.000
8870.00; 5.535;0.150;369.000
8880.00; 5.555;0.150;370.000
8890.00; 5.550;0.150;370.000
8900.00; 5.540;0.150;371.000
8910.00; 5.530;0.150;371.000
8920.00; 5.535;0.150;371.000
8930.00; 5.555;0.150;372.000
8940.00; 5.545;0.150;372.000
8950.00; 5.540;0.150;372.000
8960.00; 5.540;0.150;373.000
8970.00; 5.565;0.150;373.000
8980.00; 5.550;0.150;373.000
8990.00; 5.560;0.150;374.000
9000.00; 5.545;0.150;375.000
9010.00; 5.535;0.150;375.000
9020.00; 5.550;0.150;376.000
9030.00; 5.545;0.150;376.000
9040.00; 5.540;0.150;376.000
9050.00; 5.560;0.150;377.000
9060.00; 5.555;0.150;377.000
9070.00; 5.550;0.150;377.000
9080.00; 5.560;0.150;378.000
9090.00; 5.555;0.150;378.000
9100.00; 5.545;0.150;378.000
9110.00; 5.540;0.150;379.000
9120.00; 5.555;0.150;380.000
9130.00; 5.545;0.150;380.000
9140.00; 5.540;0.150;381.000
9150.00; 5.555;0.150;381.000
9160.00; 5.540;0.150;381.000
9170.00; 5.555;0.150;382.000
9180.00; 5.555;0.150;382.000
9190.00; 5.545;0.150;382.000
9200.00; 5.550;0.150;383.000
9210.00; 5.555;0.150;383.000
9220.00; 5.550;0.150;383.000
9230.00; 5.555;0.150;384.000
9240.00; 5.550;0.150;385.000
9250.00; 5.555;0.150;385.000
9260.00; 5.540;0.150;386.000
9270.00; 5.555;0.150;386.000
9280.00; 5.565;0.150;386.000
9290.00; 5.550;0.150;387.000
9300.00; 5.545;0.150;387.000
9310.00; 5.550;0.150;387.000
9320.00; 5.540;0.150;388.000
9330.00; 5.555;0.150;388.000
9340.00; 5.550;0.150;388.000
9350.00; 5.555;0.150;389.000
9360.00; 5.555;0.150;390.000
9370.00; 5.555;0.150;390.000
9380.00; 5.560;0.150;391.000
9390.00; 5.560;0.150;391.000
9400.00; 5.565;0.150;391.000
9410.00; 5.565;0.150;392.000
9420.00; 5.560;0.150;392.000
9430.00; 5.565;0.150;392.000
9440.00; 5.555;0.150;393.000
9450.00; 5.535;0.150;393.000
9460.00; 5.560;0.150;393.000
9470.00; 5.565;0.150;394.000
9480.00; 5.565;0.150;395.000
9490.00; 5.550;0.150;395.000
9500.00; 5.550;0.150;396.000
9510.00; 5.555;0.150;396.000
9520.00; 5.565;0.150;396.000
9530.00; 5.565;0.150;397.000
9540.00; 5.540;0.150;397.000
9550.00; 5.560;0.150;397.000
9560.00; 5.565;0.150;398.000
9570.00; 5.565;0.150;398.000
9580.00; 5.555;0.150;398.000
9590.00; 5.545;0.150;399.000
9600.00; 5.565;0.150;400.000
9610.00; 5.565;0.150;400.000
9620.00; 5.550;0.150;401.000
9630.00; 5.565;0.150;401.000
9640.00; 5.555;0.150;401.000
9650.00; 5.550;0.150;402.000
9660.00; 5.550;0.150;402.000
9670.00; 5.565;0.150;402.000
9680.00; 5.555;0.150;403.000
9690.00; 5.570;0.150;403.000
9700.00; 5.570;0.150;403.000
9710.00; 5.570;0.150;404.000
9720.00; 5.560;0.150;405.000
9730.00; 5.565;0.150;405.000
9740.00; 5.565;0.150;406.000
9750.00; 5.560;0.150;406.000
9760.00; 5.565;0.150;406.000
9770.00; 5.550;0.150;407.000
9780.00; 5.570;0.150;407.000
9790.00; 5.570;0.150;407.000
9800.00; 5.550;0.150;408.000
9810.00; 5.555;0.150;408.000
9820.00; 5.570;0.150;408.000
9830.00; 5.565;0.150;409.000
9840.00; 5.540;0.150;410.000
9850.00; 5.550;0.150;410.000
9860.00; 5.570;0.150;411.000
9870.00; 5.570;0.150;411.000
9880.00; 5.560;0.150;411.000
9890.00; 5.565;0.150;412.000
9900.00; 5.570;0.150;412.000
9910.00; 5.565;0.150;412.000
9920.00; 5.565;0.150;413.000
9930.00; 5.565;0.150;413.000
9940.00; 5.570;0.150;413.000
9950.00; 5.550;0.150;414.000
9960.00; 5.565;0.150;415.000
9970.00; 5.565;0.150;415.000
9980.00; 5.575;0.150;416.000
9990.00; 5.575;0.150;416.000
10000.00; 5.570;0.150;416.000
10010.00; 5.565;0.150;417.000
10020.00; 5.580;0.150;417.000
10030.00; 5.575;0.150;417.000
10040.00; 5.570;0.150;418.000
10050.00; 5.570;0.150;418.000
10060.00; 5.565;0.150;418.000
10070.00; 5.570;0.150;419.000
10080.00; 5.565;0.150;420.000
10090.00; 5.565;0.150;420.000
10100.00; 5.575;0.150;421.000
10110.00; 5.570;0.150;421.000
10120.00; 5.570;0.150;421.000
10130.00; 5.560;0.150;422.000
10140.00; 5.565;0.150;422.000
10150.00; 5.580;0.150;422.000
10160.00; 5.565;0.150;423.000
10170.00; 5.580;0.150;423.000
10180.00; 5.570;0.150;423.000
10190.00; 5.580;0.150;424.000
10200.00; 5.550;0.150;425.000
10210.00; 5.580;0.150;425.000
10220.00; 5.570;0.150;426.000
10230.00; 5.565;0.150;426.000
10240.00; 5.570;0.150;426.000
10250.00; 5.570;0.150;427.000
10260.00; 5.560;0.150;427.000
10270.00; 5.575;0.150;427.000
10280.00; 5.580;0.150;428.000
10290.00; 5.570;0.150;428.000
10300.00; 5.570;0.150;428.000
10310.00; 5.585;0.150;429.000
10320.00; 5.590;0.150;430.000
10330.00; 5.580;0.150;430.000
10340.00; 5.565;0.150;431.000
10350.00; 5.580;0.150;431.000
10360.00; 5.570;0.150;431.000
10370.00; 5.580;0.150;432.000
10380.00; 5.565;0.150;432.000
10390.00; 5.570;0.150;432.000
10400.00; 5.575;0.150;433.000
10410.00; 5.565;0.150;433.000
10420.00; 5.570;0.150;433.000
10430.00; 5.570;0.150;434.000
10440.00; 5.585;0.150;435.000
10450.00; 5.570;0.150;435.000
10460.00; 5.585;0.150;436.000
10470.00; 5.580;0.150;436.000
10480.00; 5.580;0.150;436.000
10490.00; 5.570;0.150;437.000
10500.00; 5.575;0.150;437.000
10510.00; 5.580;0.150;437.000
10520.00; 5.570;0.150;438.000
10530.00; 5.595;0.150;438.000
10540.00; 5.565;0.150;438.000
10550.00; 5.580;0.150;439.000
10560.00; 5.555;0.150;440.000
10570.00; 5.580;0.150;440.000
10580.00; 5.580;0.150;441.000
10590.00; 5.580;0.150;441.000
10600.00; 5.580;0.150;441.000
10610.00; 5.585;0.150;442.000
10620.00; 5.570;0.150;442.000
10630.00; 5.585;0.150;442.000
10640.00; 5.575;0.150;443.000
10650.00; 5.570;0.150;443.000
10660.00; 5.585;0.150;443.000
10670.00; 5.580;0.150;444.000
10680.00; 5.580;0.150;445.000
10690.00; 5.580;0.150;445.000
10700.00; 5.575;0.150;446.000
10710.00; 5.580;0.150;446.000
10720.00; 5.570;0.150;446.000
10730.00; 5.580;0.150;447.000
10740.00; 5.570;0.150;447.000
10750.00; 5.570;0.150;447.000
10760.00; 5.580;0.150;448.000
10770.00; 5.570;0.150;448.000
10780.00; 5.575;0.150;448.000
10790.00; 5.570;0.150;449.000
10800.00; 5.585;0.150;450.000
10810.00; 5.580;0.150;450.000
10820.00; 5.580;0.150;451.000
10830.00; 5.580;0.150;451.000
10840.00; 5.570;0.150;451.000
10850.00; 5.585;0.150;452.000
10860.00; 5.580;0.150;452.000
10870.00; 5.585;0.150;452.000
10880.00; 5.580;0.150;453.000
10890.00; 5.575;0.150;453.000
10900.00; 5.580;0.150;453.000
10910.00; 5.580;0.150;454.000
10920.00; 5.585;0.150;455.000
10930.00; 5.580;0.150;455.000
10940.00; 5.580;0.150;456.000
10950.00; 5.585;0.150;456.000
10960.00; 5.580;0.150;456.000
10970.00; 5.595;0.150;457.000
10980.00; 5.570;0.150;457.000
10990.00; 5.580;0.150;457.000
11000.00; 5.590;0.150;458.000
11010.00; 5.570;0.150;458.000
11020.00; 5.600;0.150;458.000
11030.00; 5.590;0.150;459.000
11040.00; 5.575;0.150;460.000
11050.00; 5.570;0.150;460.000
11060.00; 5.585;0.150;461.000
11070.00; 5.575;0.150;461.000
11080.00; 5.580;0.150;461.000
11090.00; 5.580;0.150;462.000
11100.00; 5.580;0.150;462.000
11110.00; 5.585;0.150;462.000
11120.00; 5.585;0.150;463.000
11130.00; 5.570;0.150;463.000
11140.00; 5.585;0.150;463.000
11150.00; 5.580;0.150;464.000
11160.00; 5.595;0.150;465.000
11170.00; 5.585;0.150;465.000
11180.00; 5.590;0.150;466.000
11190.00; 5.575;0.150;466.000
11200.00; 5.570;0.150;466.000
11210.00; 5.585;0.150;467.000
11220.00; 5.590;0.150;467.000
11230.00; 5.585;0.150;467.000
11240.00; 5.590;0.150;468.000
11250.00; 5.580;0.150;468.000
11260.00; 5.590;0.150;468.000
11270.00; 5.585;0.150;469.000
11280.00; 5.585;0.150;470.000
11290.00; 5.575;0.150;470.000
11300.00; 5.580;0.150;471.000
11310.00; 5.600;0.150;471.000
11320.00; 5.585;0.150;471.000
11330.00; 5.580;0.150;472.000
11340.00; 5.590;0.150;472.000
11350.00; 5.585;0.150;472.000
11360.00; 5.575;0.150;473.000
11370.00; 5.585;0.150;473.000
11380.00; 5.590;0.150;473.000
11390.00; 5.585;0.150;474.000
11400.00; 5.575;0.150;475.000
11410.00; 5.595;0.150;475.000
11420.00; 5.580;0.150;476.000
11430.00; 5.585;0.150;476.000
11440.00; 5.585;0.150;476.000
11450.00; 5.590;0.150;477.000
11460.00; 5.590;0.150;477.000
11470.00; 5.570;0.150;477.000
11480.00; 5.600;0.150;478.000
11490.00; 5.580;0.150;478.000
11500.00; 5.595;0.150;478.000
11510.00; 5.585;0.150;479.000
11520.00; 5.570;0.150;480.000
11530.00; 5.595;0.150;480.000
11540.00; 5.600;0.150;481.000
11550.00; 5.595;0.150;481.000
11560.00; 5.580;0.150;481.000
11570.00; 5.600;0.150;482.000
11580.00; 5.595;0.150;482.000
11590.00; 5.590;0.150;482.000
11600.00; 5.595;0.150;483.000
11610.00; 5.570;0.150;483.000
11620.00; 5.585;0.150;483.000
11630.00; 5.600;0.150;484.000
11640.00; 5.595;0.150;485.000
11650.00; 5.600;0.150;485.000
11660.00; 5.590;0.150;486.000
11670.00; 5.590;0.150;486.000
11680.00; 5.610;0.150;486.000
11690.00; 5.580;0.150;487.000
11700.00; 5.590;0.150;487.000
11710.00; 5.600;0.150;487.000
11720.00; 5.600;0.150;488.000
11730.00; 5.595;0.150;488.000
11740.00; 5.595;0.150;488.000
11750.00; 5.585;0.150;489.000
11760.00; 5.605;0.150;490.000
11770.00; 5.595;0.150;490.000
11780.00; 5.600;0.150;491.000
11790.00; 5.595;0.150;491.000
11800.00; 5.605;0.150;491.000
11810.00; 5.605;0.150;492.000
11820.00; 5.595;0.150;492.000
11830.00; 5.595;0.150;492.000
11840.00; 5.600;0.150;493.000
11850.00; 5.580;0.150;493.000
11860.00; 5.600;0.150;493.000
11870.00; 5.585;0.150;494.000
11880.00; 5.610;0.150;495.000
11890.00; 5.600;0.150;495.000
11900.00; 5.595;0.150;496.000
11910.00; 5.585;0.150;496.000
11920.00; 5.605;0.150;496.000
11930.00; 5.595;0.150;497.000
11940.00; 5.610;0.150;497.000
11950.00; 5.605;0.150;497.000
11960.00; 5.605;0.150;498.000
11970.00; 5.580;0.150;498.000
11980.00; 5.595;0.150;498.000
11990.00; 5.605;0.150;499.000
12000.00; 5.600;0.150;500.000
12010.00; 5.595;0.150;500.000
12020.00; 5.600;0.150;501.000
12030.00; 5.600;0.150;501.000
12040.00; 5.595;0.150;501.000
12050.00; 5.600;0.150;502.000
12060.00; 5.595;0.150;502.000
12070.00; 5.600;0.150;502.000
12080.00; 5.595;0.150;503.000
12090.00; 5.590;0.150;503.000
12100.00; 5.600;0.150;503.000
12110.00; 5.610;0.150;504.000
12120.00; 5.600;0.150;505.000
12130.00; 5.595;0.150;505.000
12140.00; 5.595;0.150;506.000
12150.00; 5.595;0.150;506.000
12160.00; 5.595;0.150;506.000
12170.00; 5.600;0.150;507.000
12180.00; 5.585;0.150;507.000
12190.00; 5.585;0.150;507.000
12200.00; 5.610;0.150;508.000
12210.00; 5.600;0.150;508.000
12220.00; 5.610;0.150;508.000
12230.00; 5.605;0.150;509.000
12240.00; 5.600;0.150;510.000
12250.00; 5.585;0.150;510.000
12260.00; 5.595;0.150;511.000
12270.00; 5.615;0.150;511.000
12280.00; 5.595;0.150;511.000
12290.00; 5.610;0.150;512.000
12300.00; 5.610;0.150;512.000
12310.00; 5.600;0.150;512.000
12320.00; 5.605;0.150;513.000
12330.00; 5.580;0.150;513.000
12340.00; 5.610;0.150;513.000
12350.00; 5.600;0.150;514.000
12360.00; 5.600;0.150;515.000
12370.00; 5.615;0.150;515.000
12380.00; 5.605;0.150;516.000
12390.00; 5.600;0.150;516.000
12400.00; 5.600;0.150;516.000
12410.00; 5.600;0.150;517.000
12420.00; 5.595;0.150;517.000
12430.00; 5.610;0.150;517.000
12440.00; 5.590;0.150;518.000
12450.00; 5.595;0.150;518.000
12460.00; 5.590;0.150;518.000
12470.00; 5.605;0.150;519.000
12480.00; 5.610;0.150;520.000
12490.00; 5.600;0.150;520.000
12500.00; 5.610;0.150;521.000
12510.00; 5.615;0.150;521.000
12520.00; 5.615;0.150;521.000
12530.00; 5.615;0.150;522.000
12540.00; 5.615;0.150;522.000
12550.00; 5.595;0.150;522.000
12560.00; 5.610;0.150;523.000
12570.00; 5.610;0.150;523.000
12580.00; 5.610;0.150;523.000
12590.00; 5.605;0.150;524.000
12600.00; 5.615;0.150;525.000
12610.00; 5.620;0.150;525.000
12620.00; 5.605;0.150;526.000
12630.00; 5.615;0.150;526.000
12640.00; 5.600;0.150;526.000
12650.00; 5.615;0.150;527.000
12660.00; 5.610;0.150;527.000
12670.00; 5.610;0.150;527.000
12680.00; 5.610;0.150;528.000
12690.00; 5.600;0.150;528.000
12700.00; 5.615;0.150;528.000
12710.00; 5.630;0.150;529.000
12720.00; 5.625;0.150;530.000
12730.00; 5.625;0.150;530.000
12740.00; 5.610;0.150;531.000
12750.00; 5.615;0.150;531.000
12760.00; 5.640;0.150;531.000
12770.00; 5.630;0.150;532.000
12780.00; 5.615;0.150;532.000
12790.00; 5.625;0.150;532.000
12800.00; 5.625;0.150;533.000
12810.00; 5.615;0.150;533.000
12820.00; 5.610;0.150;533.000
12830.00; 5.625;0.150;534.000
12840.00; 5.610;0.150;535.000
12850.00; 5.610;0.150;535.000
12860.00; 5.615;0.150;536.000
12870.00; 5.615;0.150;536.000
12880.00; 5.630;0.150;536.000
12890.00; 5.595;0.150;537.000
12900.00; 5.625;0.150;537.000
12910.00; 5.625;0.150;537.000
12920.00; 5.630;0.150;538.000
12930.00; 5.620;0.150;538.000
12940.00; 5.620;0.150;538.000
12950.00; 5.635;0.150;539.000
12960.00; 5.600;0.150;540.000
12970.00; 5.625;0.150;540.000
12980.00; 5.630;0.150;541.000
12990.00; 5.610;0.150;541.000
13000.00; 5.605;0.150;541.000
13010.00; 5.610;0.150;542.000
13020.00; 5.630;0.150;542.000
13030.00; 5.625;0.150;542.000
13040.00; 5.620;0.150;542.000
13050.00; 5.620;0.150;543.000
13060.00; 5.615;0.150;543.000
13070.00; 5.625;0.150;544.000
13080.00; 5.620;0.150;545.000
13090.00; 5.630;0.150;545.000
13100.00; 5.615;0.150;545.000
13110.00; 5.630;0.150;546.000
13120.00; 5.615;0.150;546.000
13130.00; 5.625;0.150;547.000
13140.00; 5.635;0.150;547.000
13150.00; 5.615;0.150;547.000
13160.00; 5.620;0.150;547.000
13170.00; 5.640;0.150;548.000
13180.00; 5.630;0.150;548.000
13190.00; 5.625;0.150;549.000
13200.00; 5.635;0.150;550.000
13210.00; 5.635;0.150;550.000
13220.00; 5.640;0.150;550.000
13230.00; 5.620;0.150;551.000
13240.00; 5.635;0.150;551.000
13250.00; 5.620;0.150;552.000
13260.00; 5.650;0.150;552.000
13270.00; 5.635;0.150;552.000
13280.00; 5.620;0.150;552.000
13290.00; 5.625;0.150;553.000
13300.00; 5.630;0.150;553.000
13310.00; 5.630;0.150;554.000
13320.00; 5.645;0.150;555.000
13330.00; 5.630;0.150;555.000
13340.00; 5.630;0.150;555.000
13350.00; 5.630;0.150;556.000
13360.00; 5.645;0.150;556.000
13370.00; 5.640;0.150;557.000
13380.00; 5.635;0.150;557.000
13390.00; 5.630;0.150;557.000
13400.00; 5.640;0.150;557.000
13410.00; 5.620;0.150;558.000
13420.00; 5.630;0.150;558.000
13430.00; 5.630;0.150;559.000
13440.00; 5.640;0.150;560.000
13450.00; 5.640;0.150;560.000
13460.00; 5.645;0.150;560.000
13470.00; 5.630;0.150;561.000
13480.00; 5.640;0.150;561.000
13490.00; 5.650;0.150;562.000
13500.00; 5.630;0.150;562.000
13510.00; 5.635;0.150;562.000
13520.00; 5.640;0.150;562.000
13530.00; 5.645;0.150;563.000
13540.00; 5.640;0.150;563.000
13550.00; 5.645;0.150;564.000
13560.00; 5.645;0.150;565.000
13570.00; 5.645;0.150;565.000
13580.00; 5.650;0.150;565.000
13590.00; 5.645;0.150;566.000
13600.00; 5.635;0.150;566.000
13610.00; 5.645;0.150;567.000
13620.00; 5.655;0.150;567.000
13630.00; 5.640;0.150;567.000
13640.00; 5.635;0.150;567.000
13650.00; 5.640;0.150;568.000
13660.00; 5.650;0.150;568.000
13670.00; 5.640;0.150;569.000
13680.00; 5.650;0.150;570.000
13690.00; 5.645;0.150;570.000
13700.00; 5.645;0.150;570.000
13710.00; 5.650;0.150;571.000
13720.00; 5.640;0.150;571.000
13730.00; 5.650;0.150;572.000
13740.00; 5.660;0.150;572.000
13750.00; 5.645;0.150;572.000
13760.00; 5.655;0.150;572.000
13770.00; 5.655;0.150;573.000
13780.00; 5.655;0.150;573.000
13790.00; 5.650;0.150;574.000
13800.00; 5.645;0.150;575.000
13810.00; 5.655;0.150;575.000
13820.00; 5.640;0.150;575.000
13830.00; 5.655;0.150;576.000
13840.00; 5.645;0.150;576.000
13850.00; 5.635;0.150;577.000
13860.00; 5.645;0.150;577.000
13870.00; 5.640;0.150;577.000
13880.00; 5.645;0.150;577.000
13890.00; 5.650;0.150;578.000
13900.00; 5.655;0.150;578.000
13910.00; 5.645;0.150;579.000
13920.00; 5.635;0.150;580.000
13930.00; 5.660;0.150;580.000
13940.00; 5.660;0.150;580.000
13950.00; 5.660;0.150;581.000
13960.00; 5.655;0.150;581.000
13970.00; 5.660;0.150;582.000
13980.00; 5.660;0.150;582.000
13990.00; 5.650;0.150;582.000
14000.00; 5.660;0.150;582.000
14010.00; 5.660;0.150;583.000
14020.00; 5.670;0.150;583.000
14030.00; 5.655;0.150;584.000
14040.00; 5.655;0.150;585.000
14050.00; 5.675;0.150;585.000
14060.00; 5.655;0.150;585.000
14070.00; 5.660;0.150;586.000
14080.00; 5.670;0.150;586.000
14090.00; 5.660;0.150;587.000
14100.00; 5.660;0.150;587.000
14110.00; 5.660;0.150;587.000
14120.00; 5.675;0.150;587.000
14130.00; 5.665;0.150;588.000
14140.00; 5.670;0.150;588.000
14150.00; 5.675;0.150;589.000
14160.00; 5.670;0.150;590.000
14170.00; 5.670;0.150;590.000
14180.00; 5.665;0.150;590.000
14190.00; 5.670;0.150;591.000
14200.00; 5.670;0.150;591.000
14210.00; 5.660;0.150;592.000
14220.00; 5.680;0.150;592.000
14230.00; 5.670;0.150;592.000
14240.00; 5.665;0.150;592.000
14250.00; 5.675;0.150;593.000
14260.00; 5.680;0.150;593.000
14270.00; 5.660;0.150;594.000
14280.00; 5.670;0.150;595.000
14290.00; 5.665;0.150;595.000
14300.00; 5.675;0.150;595.000
14310.00; 5.695;0.150;596.000
14320.00; 5.680;0.150;596.000
14330.00; 5.670;0.150;597.000
14340.00; 5.660;0.150;597.000
14350.00; 5.675;0.150;597.000
14360.00; 5.685;0.150;597.000
14370.00; 5.675;0.150;598.000
14380.00; 5.670;0.150;598.000
14390.00; 5.680;0.150;599.000
14400.00; 5.680;0.150;600.000
14410.00; 5.685;0.150;600.000
14420.00; 5.675;0.150;600.000
14430.00; 5.680;0.150;601.000
14440.00; 5.680;0.150;601.000
14450.00; 5.685;0.150;602.000
14460.00; 5.685;0.150;602.000
14470.00; 5.675;0.150;602.000
14480.00; 5.690;0.150;602.000
14490.00; 5.680;0.150;603.000
14500.00; 5.695;0.150;603.000
14510.00; 5.685;0.150;604.000
14520.00; 5.680;0.150;605.000
14530.00; 5.680;0.150;605.000
14540.00; 5.690;0.150;605.000
14550.00; 5.700;0.150;606.000
14560.00; 5.690;0.150;606.000
14570.00; 5.690;0.150;607.000
14580.00; 5.690;0.150;607.000
14590.00; 5.680;0.150;607.000
14600.00; 5.685;0.150;607.000
14610.00; 5.685;0.150;608.000
14620.00; 5.695;0.150;608.000
14630.00; 5.685;0.150;609.000
14640.00; 5.685;0.150;610.000
14650.00; 5.685;0.150;610.000
14660.00; 5.685;0.150;610.000
14670.00; 5.700;0.150;611.000
14680.00; 5.690;0.150;611.000
14690.00; 5.690;0.150;612.000
14700.00; 5.700;0.150;612.000
14710.00; 5.700;0.150;612.000
14720.00; 5.685;0.150;612.000
14730.00; 5.685;0.150;613.000
14740.00; 5.700;0.150;613.000
14750.00; 5.710;0.150;614.000
14760.00; 5.690;0.150;615.000
14770.00; 5.700;0.150;615.000
14780.00; 5.690;0.150;615.000
14790.00; 5.705;0.150;616.000
14800.00; 5.715;0.150;616.000
14810.00; 5.705;0.150;617.000
14820.00; 5.700;0.150;617.000
14830.00; 5.705;0.150;617.000
14840.00; 5.670;0.150;617.000
14850.00; 5.700;0.150;618.000
14860.00; 5.700;0.150;618.000
14870.00; 5.705;0.150;619.000
14880.00; 5.710;0.150;620.000
14890.00; 5.685;0.150;620.000
14900.00; 5.700;0.150;620.000
14910.00; 5.705;0.150;621.000
14920.00; 5.720;0.150;621.000
14930.00; 5.700;0.150;622.000
14940.00; 5.710;0.150;622.000
14950.00; 5.705;0.150;622.000
14960.00; 5.705;0.150;622.000
14970.00; 5.705;0.150;623.000
14980.00; 5.705;0.150;623.000
14990.00; 5.720;0.150;624.000
15000.00; 5.705;0.150;625.000
15010.00; 5.720;0.150;625.000
15020.00; 5.715;0.150;625.000
15030.00; 5.715;0.150;626.000
15040.00; 5.730;0.150;626.000
15050.00; 5.725;0.150;627.000
15060.00; 5.715;0.150;627.000
15070.00; 5.715;0.150;627.000
15080.00; 5.725;0.150;627.000
15090.00; 5.725;0.150;628.000
15100.00; 5.720;0.150;628.000
15110.00; 5.735;0.150;629.000
15120.00; 5.720;0.150;630.000
15130.00; 5.725;0.150;630.000
15140.00; 5.735;0.150;630.000
15150.00; 5.725;0.150;631.000
15160.00; 5.730;0.150;631.000
15170.00; 5.735;0.150;632.000
15180.00; 5.730;0.150;632.000
15190.00; 5.720;0.150;632.000
15200.00; 5.730;0.150;632.000
15210.00; 5.720;0.150;633.000
15220.00; 5.720;0.150;633.000
15230.00; 5.735;0.150;634.000
15240.00; 5.740;0.150;635.000
15250.00; 5.735;0.150;635.000
15260.00; 5.745;0.150;635.000
15270.00; 5.725;0.150;636.000
15280.00; 5.745;0.150;636.000
15290.00; 5.730;0.150;637.000
15300.00; 5.745;0.150;637.000
15310.00; 5.745;0.150;637.000
15320.00; 5.745;0.150;637.000
15330.00; 5.750;0.150;638.000
15340.00; 5.745;0.150;638.000
15350.00; 5.735;0.150;639.000
15360.00; 5.750;0.150;640.000
15370.00; 5.750;0.150;640.000
15380.00; 5.740;0.150;640.000
15390.00; 5.730;0.150;641.000
15400.00; 5.745;0.150;641.000
15410.00; 5.745;0.150;642.000
15420.00; 5.740;0.150;642.000
15430.00; 5.750;0.150;642.000
15440.00; 5.740;0.150;642.000
15450.00; 5.760;0.150;643.000
15460.00; 5.750;0.150;643.000
15470.00; 5.750;0.150;644.000
15480.00; 5.760;0.150;645.000
15490.00; 5.750;0.150;645.000
15500.00; 5.765;0.150;645.000
15510.00; 5.765;0.150;646.000
15520.00; 5.745;0.150;646.000
15530.00; 5.760;0.150;647.000
15540.00; 5.765;0.150;647.000
15550.00; 5.760;0.150;647.000
15560.00; 5.760;0.150;647.000
15570.00; 5.755;0.150;648.000
15580.00; 5.765;0.150;648.000
15590.00; 5.750;0.150;649.000
15600.00; 5.765;0.150;650.000
15610.00; 5.765;0.150;650.000
15620.00; 5.765;0.150;650.000
15630.00; 5.780;0.150;651.000
15640.00; 5.775;0.150;651.000
15650.00; 5.775;0.150;652.000
15660.00; 5.765;0.150;652.000
15670.00; 5.765;0.150;652.000
15680.00; 5.775;0.150;652.000
15690.00; 5.775;0.150;653.000
15700.00; 5.760;0.150;653.000
15710.00; 5.775;0.150;654.000
15720.00; 5.770;0.150;655.000
15730.00; 5.765;0.150;655.000
15740.00; 5.775;0.150;655.000
15750.00; 5.780;0.150;656.000
15760.00; 5.775;0.150;656.000
15770.00; 5.780;0.150;657.000
15780.00; 5.780;0.150;657.000
15790.00; 5.775;0.150;657.000
15800.00; 5.785;0.150;657.000
15810.00; 5.775;0.150;658.000
15820.00; 5.785;0.150;658.000
15830.00; 5.785;0.150;659.000
15840.00; 5.780;0.150;660.000
15850.00; 5.790;0.150;660.000
15860.00; 5.790;0.150;660.000
15870.00; 5.780;0.150;661.000
15880.00; 5.790;0.150;661.000
15890.00; 5.790;0.150;662.000
15900.00; 5.795;0.150;662.000
15910.00; 5.790;0.150;662.000
15920.00; 5.790;0.150;662.000
15930.00; 5.790;0.150;663.000
15940.00; 5.780;0.150;663.000
15950.00; 5.805;0.150;664.000
15960.00; 5.800;0.150;665.000
15970.00; 5.795;0.150;665.000
15980.00; 5.790;0.150;665.000
15990.00; 5.790;0.150;666.000
16000.00; 5.805;0.150;666.000
16010.00; 5.810;0.150;667.000
16020.00; 5.785;0.150;667.000
16030.00; 5.800;0.150;667.000
16040.00; 5.810;0.150;667.000
16050.00; 5.810;0.150;668.000
16060.00; 5.800;0.150;668.000
16070.00; 5.800;0.150;669.000
16080.00; 5.810;0.150;670.000
16090.00; 5.815;0.150;670.000
16100.00; 5.800;0.150;670.000
16110.00; 5.800;0.150;671.000
16120.00; 5.810;0.150;671.000
16130.00; 5.810;0.150;672.000
16140.00; 5.810;0.150;672.000
16150.00; 5.810;0.150;672.000
16160.00; 5.810;0.150;672.000
16170.00; 5.810;0.150;673.000
16180.00; 5.815;0.150;673.000
16190.00; 5.820;0.150;674.000
16200.00; 5.820;0.150;675.000
16210.00; 5.810;0.150;675.000
16220.00; 5.810;0.150;675.000
16230.00; 5.810;0.150;676.000
16240.00; 5.820;0.150;676.000
16250.00; 5.825;0.150;677.000
16260.00; 5.815;0.150;677.000
16270.00; 5.825;0.150;677.000
16280.00; 5.835;0.150;677.000
16290.00; 5.820;0.150;678.000
16300.00; 5.810;0.150;678.000
16310.00; 5.830;0.150;679.000
16320.00; 5.810;0.150;680.000
16330.00; 5.825;0.150;680.000
16340.00; 5.825;0.150;680.000
16350.00; 5.810;0.150;681.000
16360.00; 5.830;0.150;681.000
16370.00; 5.835;0.150;682.000
16380.00; 5.835;0.150;682.000
16390.00; 5.835;0.150;682.000
16400.00; 5.835;0.150;682.000
16410.00; 5.845;0.150;683.000
16420.00; 5.820;0.150;683.000
16430.00; 5.820;0.150;684.000
16440.00; 5.845;0.150;685.000
16450.00; 5.825;0.150;685.000
16460.00; 5.840;0.150;685.000
16470.00; 5.835;0.150;686.000
16480.00; 5.830;0.150;686.000
16490.00; 5.820;0.150;687.000
16500.00; 5.820;0.150;687.000
16510.00; 5.845;0.150;687.000
16520.00; 5.840;0.150;687.000
16530.00; 5.835;0.150;688.000
16540.00; 5.840;0.150;688.000
16550.00; 5.845;0.150;689.000
16560.00; 5.835;0.150;690.000
16570.00; 5.850;0.150;690.000
16580.00; 5.835;0.150;690.000
16590.00; 5.850;0.150;691.000
16600.00; 5.850;0.150;691.000
16610.00; 5.845;0.150;692.000
16620.00; 5.840;0.150;692.000
16630.00; 5.840;0.150;692.000
16640.00; 5.855;0.150;692.000
16650.00; 5.835;0.150;693.000
16660.00; 5.845;0.150;693.000
16670.00; 5.850;0.150;694.000
16680.00; 5.850;0.150;695.000
16690.00; 5.855;0.150;695.000
16700.00; 5.850;0.150;695.000
16710.00; 5.850;0.150;696.000
16720.00; 5.845;0.150;696.000
16730.00; 5.845;0.150;697.000
16740.00; 5.850;0.150;697.000
16750.00; 5.840;0.150;697.000
16760.00; 5.840;0.150;697.000
16770.00; 5.850;0.150;698.000
16780.00; 5.855;0.150;698.000
16790.00; 5.855;0.150;699.000
16800.00; 5.855;0.150;700.000
16810.00; 5.860;0.150;700.000
16820.00; 5.865;0.150;700.000
16830.00; 5.855;0.150;701.000
16840.00; 5.840;0.150;701.000
16850.00; 5.855;0.150;702.000
16860.00; 5.855;0.150;702.000
16870.00; 5.865;0.150;702.000
16880.00; 5.870;0.150;702.000
16890.00; 5.855;0.150;703.000
16900.00; 5.855;0.150;703.000
16910.00; 5.860;0.150;704.000
16920.00; 5.855;0.150;705.000
16930.00; 5.860;0.150;705.000
16940.00; 5.855;0.150;705.000
16950.00; 5.865;0.150;706.000
16960.00; 5.865;0.150;706.000
16970.00; 5.855;0.150;707.000
16980.00; 5.880;0.150;707.000
16990.00; 5.865;0.150;707.000
17000.00; 5.855;0.150;707.000
17010.00; 5.865;0.150;708.000
17020.00; 5.870;0.150;708.000
17030.00; 5.870;0.150;709.000
17040.00; 5.865;0.150;710.000
17050.00; 5.870;0.150;710.000
17060.00; 5.855;0.150;710.000
17070.00; 5.870;0.150;711.000
17080.00; 5.865;0.150;711.000
17090.00; 5.865;0.150;712.000
17100.00; 5.865;0.150;712.000
17110.00; 5.855;0.150;712.000
17120.00; 5.865;0.150;712.000
17130.00; 5.865;0.150;713.000
17140.00; 5.855;0.150;713.000
17150.00; 5.865;0.150;714.000
17160.00; 5.870;0.150;715.000
17170.00; 5.865;0.150;715.000
17180.00; 5.875;0.150;715.000
17190.00; 5.875;0.150;716.000
17200.00; 5.870;0.150;716.000
17210.00; 5.865;0.150;717.000
17220.00; 5.870;0.150;717.000
17230.00; 5.870;0.150;717.000
17240.00; 5.865;0.150;717.000
17250.00; 5.855;0.150;718.000
17260.00; 5.880;0.150;718.000
17270.00; 5.870;0.150;719.000
17280.00; 5.875;0.150;720.000
17290.00; 5.870;0.150;720.000
17300.00; 5.875;0.150;720.000
17310.00; 5.860;0.150;721.000
17320.00; 5.870;0.150;721.000
17330.00; 5.865;0.150;722.000
17340.00; 5.885;0.150;722.000
17350.00; 5.870;0.150;722.000
17360.00; 5.875;0.150;722.000
17370.00; 5.880;0.150;723.000
17380.00; 5.875;0.150;723.000
17390.00; 5.870;0.150;724.000
17400.00; 5.880;0.150;725.000
17410.00; 5.865;0.150;725.000
17420.00; 5.870;0.150;725.000
17430.00; 5.870;0.150;726.000
17440.00; 5.880;0.150;726.000
17450.00; 5.880;0.150;727.000
17460.00; 5.875;0.150;727.000
17470.00; 5.855;0.150;727.000
17480.00; 5.870;0.150;727.000
17490.00; 5.870;0.150;728.000
17500.00; 5.880;0.150;728.000
17510.00; 5.870;0.150;729.000
17520.00; 5.875;0.150;730.000
17530.00; 5.870;0.150;730.000
17540.00; 5.875;0.150;730.000
17550.00; 5.870;0.150;731.000
17560.00; 5.880;0.150;731.000
17570.00; 5.870;0.150;732.000
17580.00; 5.870;0.150;732.000
17590.00; 5.875;0.150;732.000
17600.00; 5.875;0.150;732.000
17610.00; 5.865;0.150;733.000
17620.00; 5.865;0.150;733.000
17630.00; 5.880;0.150;734.000
17640.00; 5.880;0.150;735.000
17650.00; 5.855;0.150;735.000
17660.00; 5.870;0.150;735.000
17670.00; 5.880;0.150;736.000
17680.00; 5.875;0.150;736.000
17690.00; 5.880;0.150;737.000
17700.00; 5.885;0.150;737.000
17710.00; 5.870;0.150;737.000
17720.00; 5.880;0.150;737.000
17730.00; 5.875;0.150;738.000
17740.00; 5.880;0.150;738.000
17750.00; 5.880;0.150;739.000
17760.00; 5.880;0.150;740.000
17770.00; 5.875;0.150;740.000
17780.00; 5.875;0.150;740.000
17790.00; 5.880;0.150;741.000
17800.00; 5.890;0.150;741.000
17810.00; 5.875;0.150;742.000
17820.00; 5.885;0.150;742.000
17830.00; 5.865;0.150;742.000
17840.00; 5.865;0.150;742.000
17850.00; 5.895;0.150;743.000
17860.00; 5.880;0.150;743.000
17870.00; 5.880;0.150;744.000
17880.00; 5.880;0.150;745.000
17890.00; 5.885;0.150;745.000
17900.00; 5.870;0.150;745.000
17910.00; 5.875;0.150;746.000
17920.00; 5.850;0.150;746.000
17930.00; 5.875;0.150;747.000
17940.00; 5.885;0.150;747.000
17950.00; 5.865;0.150;747.000
17960.00; 5.865;0.150;747.000
17970.00; 5.880;0.150;748.000
17980.00; 5.880;0.150;748.000
17990.00; 5.885;0.150;749.000
18000.00; 5.865;0.150;750.000
18010.00; 5.870;0.150;750.000
18020.00; 5.875;0.150;750.000
18030.00; 5.855;0.150;751.000
18040.00; 5.885;0.150;751.000
18050.00; 5.885;0.150;752.000
18060.00; 5.865;0.150;752.000
18070.00; 5.880;0.150;752.000
18080.00; 5.875;0.150;752.000
18090.00; 5.875;0.150;753.000
18100.00; 5.870;0.150;753.000
18110.00; 5.880;0.150;754.000
18120.00; 5.870;0.150;755.000
18130.00; 5.880;0.150;755.000
18140.00; 5.870;0.150;755.000
18150.00; 5.860;0.150;756.000
18160.00; 5.870;0.150;756.000
18170.00; 5.855;0.150;757.000
18180.00; 5.880;0.150;757.000
18190.00; 5.865;0.150;757.000
18200.00; 5.880;0.150;757.000
18210.00; 5.890;0.150;758.000
18220.00; 5.880;0.150;758.000
18230.00; 5.880;0.150;759.000
18240.00; 5.880;0.150;760.000
18250.00; 5.875;0.150;760.000
18260.00; 5.875;0.150;760.000
18270.00; 5.875;0.150;761.000
18280.00; 5.880;0.150;761.000
18290.00; 5.870;0.150;762.000
18300.00; 5.875;0.150;762.000
18310.00; 5.870;0.150;762.000
18320.00; 5.875;0.150;762.000
18330.00; 5.880;0.150;763.000
18340.00; 5.870;0.150;763.000
18350.00; 5.870;0.150;764.000
18360.00; 5.875;0.150;765.000
18370.00; 5.870;0.150;765.000
18380.00; 5.880;0.150;765.000
18390.00; 5.875;0.150;766.000
18400.00; 5.880;0.150;766.000
18410.00; 5.875;0.150;767.000
18420.00; 5.870;0.150;767.000
18430.00; 5.870;0.150;767.000
18440.00; 5.870;0.150;767.000
18450.00; 5.870;0.150;768.000
18460.00; 5.870;0.150;768.000
18470.00; 5.875;0.150;769.000
18480.00; 5.870;0.150;770.000
18490.00; 5.865;0.150;770.000
18500.00; 5.870;0.150;770.000
18510.00; 5.875;0.150;771.000
18520.00; 5.880;0.150;771.000
18530.00; 5.880;0.150;772.000
18540.00; 5.870;0.150;772.000
18550.00; 5.880;0.150;772.000
18560.00; 5.885;0.150;772.000
18570.00; 5.875;0.150;773.000
18580.00; 5.870;0.150;773.000
18590.00; 5.870;0.150;774.000
18600.00; 5.865;0.150;775.000
18610.00; 5.870;0.150;775.000
18620.00; 5.860;0.150;775.000
18630.00; 5.870;0.150;776.000
18640.00; 5.865;0.150;776.000
18650.00; 5.850;0.150;777.000
18660.00; 5.870;0.150;777.000
18670.00; 5.865;0.150;777.000
18680.00; 5.875;0.150;777.000
18690.00; 5.880;0.150;778.000
18700.00; 5.865;0.150;778.000
18710.00; 5.870;0.150;779.000
18720.00; 5.870;0.150;780.000
18730.00; 5.870;0.150;780.000
18740.00; 5.880;0.150;780.000
18750.00; 5.860;0.150;781.000
18760.00; 5.870;0.150;781.000
18770.00; 5.880;0.150;782.000
18780.00; 5.875;0.150;782.000
18790.00; 5.865;0.150;782.000
18800.00; 5.875;0.150;782.000
18810.00; 5.870;0.150;783.000
18820.00; 5.865;0.150;783.000
18830.00; 5.880;0.150;784.000
18840.00; 5.865;0.150;785.000
18850.00; 5.865;0.150;785.000
18860.00; 5.875;0.150;785.000
18870.00; 5.870;0.150;786.000
18880.00; 5.865;0.150;786.000
18890.00; 5.860;0.150;787.000
18900.00; 5.865;0.150;787.000
18910.00; 5.860;0.150;787.000
18920.00; 5.865;0.150;787.000
18930.00; 5.855;0.150;788.000
18940.00; 5.870;0.150;788.000
18950.00; 5.870;0.150;789.000
18960.00; 5.855;0.150;790.000
18970.00; 5.870;0.150;790.000
18980.00; 5.850;0.150;790.000
18990.00; 5.875;0.150;791.000
19000.00; 5.865;0.150;791.000
19010.00; 5.865;0.150;792.000
19020.00; 5.865;0.150;792.000
19030.00; 5.875;0.150;792.000
19040.00; 5.865;0.150;792.000
19050.00; 5.865;0.150;793.000
19060.00; 5.870;0.150;793.000
19070.00; 5.870;0.150;794.000
19080.00; 5.870;0.150;795.000
19090.00; 5.865;0.150;795.000
19100.00; 5.855;0.150;795.000
19110.00; 5.870;0.150;796.000
19120.00; 5.865;0.150;796.000
19130.00; 5.865;0.150;797.000
19140.00; 5.865;0.150;797.000
19150.00; 5.870;0.150;797.000
19160.00; 5.865;0.150;797.000
19170.00; 5.870;0.150;798.000
19180.00; 5.865;0.150;798.000
19190.00; 5.865;0.150;799.000
19200.00; 5.870;0.150;800.000
19210.00; 5.870;0.150;800.000
19220.00; 5.875;0.150;800.000
19230.00; 5.865;0.150;801.000
19240.00; 5.870;0.150;801.000
19250.00; 5.865;0.150;802.000
19260.00; 5.850;0.150;802.000
19270.00; 5.865;0.150;802.000
19280.00; 5.870;0.150;802.000
19290.00; 5.865;0.150;803.000
19300.00; 5.880;0.150;803.000
19310.00; 5.865;0.150;804.000
19320.00; 5.860;0.150;805.000
19330.00; 5.870;0.150;805.000
19340.00; 5.865;0.150;805.000
19350.00; 5.865;0.150;806.000
19360.00; 5.860;0.150;806.000
19370.00; 5.880;0.150;807.000
19380.00; 5.855;0.150;807.000
19390.00; 5.860;0.150;807.000
19400.00; 5.860;0.150;807.000
19410.00; 5.855;0.150;808.000
19420.00; 5.865;0.150;808.000
19430.00; 5.865;0.150;809.000
19440.00; 5.885;0.150;810.000
19450.00; 5.855;0.150;810.000
19460.00; 5.865;0.150;810.000
19470.00; 5.855;0.150;811.000
19480.00; 5.860;0.150;811.000
19490.00; 5.860;0.150;812.000
19500.00; 5.855;0.150;812.000
19510.00; 5.870;0.150;812.000
19520.00; 5.860;0.150;812.000
19530.00; 5.865;0.150;813.000
19540.00; 5.865;0.150;813.000
19550.00; 5.870;0.150;814.000
19560.00; 5.870;0.150;815.000
19570.00; 5.870;0.150;815.000
19580.00; 5.875;0.150;815.000
19590.00; 5.865;0.150;816.000
19600.00; 5.865;0.150;816.000
19610.00; 5.865;0.150;817.000
19620.00; 5.875;0.150;817.000
19630.00; 5.865;0.150;817.000
19640.00; 5.865;0.150;817.000
19650.00; 5.860;0.150;818.000
19660.00; 5.865;0.150;818.000
19670.00; 5.865;0.150;819.000
19680.00; 5.865;0.150;820.000
19690.00; 5.860;0.150;820.000
19700.00; 5.855;0.150;820.000
19710.00; 5.865;0.150;821.000
19720.00; 5.865;0.150;821.000
19730.00; 5.870;0.150;822.000
19740.00; 5.860;0.150;822.000
19750.00; 5.855;0.150;822.000
19760.00; 5.865;0.150;822.000
19770.00; 5.865;0.150;823.000
19780.00; 5.860;0.150;823.000
19790.00; 5.855;0.150;824.000
19800.00; 5.855;0.150;825.000
19810.00; 5.870;0.150;825.000
19820.00; 5.855;0.150;825.000
19830.00; 5.870;0.150;826.000
19840.00; 5.855;0.150;826.000
19850.00; 5.855;0.150;827.000
19860.00; 5.865;0.150;827.000
19870.00; 5.855;0.150;827.000
19880.00; 5.865;0.150;827.000
19890.00; 5.865;0.150;828.000
19900.00; 5.865;0.150;828.000
19910.00; 5.865;0.150;829.000
19920.00; 5.870;0.150;830.000
19930.00; 5.865;0.150;830.000
19940.00; 5.850;0.150;830.000
19950.00; 5.865;0.150;831.000
19960.00; 5.870;0.150;831.000
19970.00; 5.875;0.150;832.000
19980.00; 5.860;0.150;832.000
19990.00; 5.860;0.150;832.000
20000.00; 5.860;0.150;832.000
20010.00; 5.855;0.150;833.000
20020.00; 5.865;0.150;833.000
20030.00; 5.870;0.150;834.000
20040.00; 5.855;0.150;835.000
20050.00; 5.860;0.150;835.000
20060.00; 5.870;0.150;835.000
20070.00; 5.860;0.150;836.000
20080.00; 5.865;0.150;836.000
20090.00; 5.865;0.150;837.000
20100.00; 5.865;0.150;837.000
20110.00; 5.880;0.150;837.000
20120.00; 5.870;0.150;837.000
20130.00; 5.865;0.150;838.000
20140.00; 5.865;0.150;838.000
20150.00; 5.865;0.150;839.000
20160.00; 5.855;0.150;840.000
20170.00; 5.865;0.150;840.000
20180.00; 5.865;0.150;840.000
20190.00; 5.870;0.150;841.000
20200.00; 5.870;0.150;841.000
20210.00; 5.875;0.150;842.000
20220.00; 5.875;0.150;842.000
20230.00; 5.870;0.150;842.000
20240.00; 5.855;0.150;842.000
20250.00; 5.865;0.150;843.000
20260.00; 5.860;0.150;843.000
20270.00; 5.865;0.150;844.000
20280.00; 5.865;0.150;845.000
20290.00; 5.860;0.150;845.000
20300.00; 5.850;0.150;845.000
20310.00; 5.870;0.150;846.000
20320.00; 5.860;0.150;846.000
20330.00; 5.865;0.150;847.000
20340.00; 5.870;0.150;847.000
20350.00; 5.855;0.150;847.000
20360.00; 5.860;0.150;847.000
20370.00; 5.865;0.150;848.000
20380.00; 5.850;0.150;848.000
20390.00; 5.865;0.150;849.000
20400.00; 5.855;0.150;850.000
20410.00; 5.865;0.150;850.000
20420.00; 5.860;0.150;850.000
20430.00; 5.870;0.150;851.000
20440.00; 5.860;0.150;851.000
20450.00; 5.860;0.150;852.000
20460.00; 5.865;0.150;852.000
20470.00; 5.865;0.150;852.000
20480.00; 5.855;0.150;852.000
20490.00; 5.865;0.150;853.000
20500.00; 5.865;0.150;853.000
20510.00; 5.855;0.150;854.000
20520.00; 5.850;0.150;855.000
20530.00; 5.865;0.150;855.000
20540.00; 5.860;0.150;855.000
20550.00; 5.855;0.150;856.000
20560.00; 5.865;0.150;856.000
20570.00; 5.855;0.150;857.000
20580.00; 5.855;0.150;857.000
20590.00; 5.865;0.150;857.000
20600.00; 5.855;0.150;857.000
20610.00; 5.870;0.150;858.000
20620.00; 5.865;0.150;858.000
20630.00; 5.860;0.150;859.000
20640.00; 5.865;0.150;860.000
20650.00; 5.865;0.150;860.000
20660.00; 5.860;0.150;860.000
20670.00; 5.860;0.150;861.000
20680.00; 5.855;0.150;861.000
20690.00; 5.870;0.150;862.000
20700.00; 5.860;0.150;862.000
20710.00; 5.855;0.150;862.000
20720.00; 5.870;0.150;862.000
20730.00; 5.865;0.150;863.000
20740.00; 5.870;0.150;863.000
20750.00; 5.870;0.150;864.000
20760.00; 5.855;0.150;865.000
20770.00; 5.865;0.150;865.000
20780.00; 5.850;0.150;865.000
20790.00; 5.855;0.150;866.000
20800.00; 5.865;0.150;866.000
20810.00; 5.870;0.150;867.000
20820.00; 5.855;0.150;867.000
20830.00; 5.865;0.150;867.000
20840.00; 5.855;0.150;867.000
20850.00; 5.855;0.150;868.000
20860.00; 5.855;0.150;868.000
20870.00; 5.865;0.150;869.000
20880.00; 5.855;0.150;870.000
20890.00; 5.870;0.150;870.000
20900.00; 5.865;0.150;870.000
20910.00; 5.855;0.150;871.000
20920.00; 5.865;0.150;871.000
20930.00; 5.860;0.150;872.000
20940.00; 5.855;0.150;872.000
20950.00; 5.865;0.150;872.000
20960.00; 5.860;0.150;872.000
20970.00; 5.855;0.150;873.000
20980.00; 5.855;0.150;873.000
20990.00; 5.855;0.150;874.000
21000.00; 5.865;0.150;875.000
21010.00; 5.855;0.150;875.000
21020.00; 5.855;0.150;875.000
21030.00; 5.860;0.150;876.000
21040.00; 5.855;0.150;876.000
21050.00; 5.870;0.150;877.000
21060.00; 5.860;0.150;877.000
21070.00; 5.870;0.150;877.000
21080.00; 5.865;0.150;877.000
21090.00; 5.865;0.150;878.000
21100.00; 5.855;0.150;878.000
21110.00; 5.865;0.150;879.000
21120.00; 5.865;0.150;880.000
21130.00; 5.860;0.150;880.000
21140.00; 5.865;0.150;880.000
21150.00; 5.865;0.150;881.000
21160.00; 5.855;0.150;881.000
21170.00; 5.865;0.150;882.000
21180.00; 5.860;0.150;882.000
21190.00; 5.865;0.150;882.000
21200.00; 5.860;0.150;882.000
21210.00; 5.870;0.150;883.000
21220.00; 5.860;0.150;883.000
21230.00; 5.870;0.150;884.000
21240.00; 5.860;0.150;885.000
21250.00; 5.865;0.150;885.000
21260.00; 5.865;0.150;885.000
21270.00; 5.845;0.150;886.000
21280.00; 5.865;0.150;886.000
21290.00; 5.860;0.150;887.000
21300.00; 5.865;0.150;887.000
21310.00; 5.865;0.150;887.000
21320.00; 5.850;0.150;887.000
21330.00; 5.860;0.150;888.000
21340.00; 5.855;0.150;888.000
21350.00; 5.860;0.150;889.000
21360.00; 5.865;0.150;890.000
21370.00; 5.860;0.150;890.000
21380.00; 5.855;0.150;890.000
21390.00; 5.870;0.150;891.000
21400.00; 5.870;0.150;891.000
21410.00; 5.860;0.150;892.000
21420.00; 5.860;0.150;892.000
21430.00; 5.855;0.150;892.000
21440.00; 5.855;0.150;892.000
21450.00; 5.850;0.150;893.000
21460.00; 5.865;0.150;893.000
21470.00; 5.865;0.150;894.000
21480.00; 5.860;0.150;895.000
21490.00; 5.860;0.150;895.000
21500.00; 5.850;0.150;895.000
21510.00; 5.865;0.150;896.000
21520.00; 5.870;0.150;896.000
21530.00; 5.855;0.150;897.000
21540.00; 5.865;0.150;897.000
21550.00; 5.870;0.150;897.000
21560.00; 5.855;0.150;897.000
21570.00; 5.875;0.150;898.000
21580.00; 5.870;0.150;898.000
21590.00; 5.855;0.150;899.000
21600.00; 5.855;0.150;900.000
21610.00; 5.865;0.150;900.000
21620.00; 5.865;0.150;900.000
21630.00; 5.855;0.150;901.000
21640.00; 5.855;0.150;901.000
21650.00; 5.860;0.150;902.000
21660.00; 5.875;0.150;902.000
21670.00; 5.860;0.150;902.000
21680.00; 5.855;0.150;902.000
21690.00; 5.865;0.150;903.000
21700.00; 5.870;0.150;903.000
21710.00; 5.870;0.150;904.000
21720.00; 5.865;0.150;905.000
21730.00; 5.855;0.150;905.000
21740.00; 5.860;0.150;905.000
21750.00; 5.865;0.150;906.000
21760.00; 5.855;0.150;906.000
21770.00; 5.855;0.150;907.000
21780.00; 5.850;0.150;907.000
21790.00; 5.865;0.150;907.000
21800.00; 5.865;0.150;907.000
21810.00; 5.875;0.150;908.000
21820.00; 5.870;0.150;908.000
21830.00; 5.855;0.150;909.000
21840.00; 5.865;0.150;910.000
21850.00; 5.865;0.150;910.000
21860.00; 5.865;0.150;910.000
21870.00; 5.855;0.150;911.000
21880.00; 5.855;0.150;911.000
21890.00; 5.865;0.150;912.000
21900.00; 5.870;0.150;912.000
21910.00; 5.880;0.150;912.000
21920.00; 5.865;0.150;912.000
21930.00; 5.855;0.150;913.000
21940.00; 5.860;0.150;913.000
21950.00; 5.860;0.150;914.000
21960.00; 5.855;0.150;915.000
21970.00; 5.870;0.150;915.000
21980.00; 5.870;0.150;915.000
21990.00; 5.870;0.150;916.000
22000.00; 5.855;0.150;916.000
22010.00; 5.855;0.150;917.000
22020.00; 5.865;0.150;917.000
