AkkuMasterC4
Zeit [sec];Spannung [V];Strom [A];Ladung [mAh]
0.00; 4.385;0.500;0.000
10.00; 4.530;0.500;1.000
20.00; 4.650;0.500;3.000
30.00; 4.765;0.500;4.000
40.00; 4.885;0.500;5.000
50.00; 5.020;0.500;7.000
60.00; 5.160;0.500;8.000
70.00; 5.315;0.500;9.000
80.00; 5.445;0.500;11.000
90.00; 5.565;0.500;12.000
100.00; 5.625;0.500;13.000
110.00; 5.690;0.500;15.000
120.00; 5.735;0.500;16.000
130.00; 5.775;0.500;17.000
140.00; 5.800;0.500;19.000
150.00; 5.795;0.500;20.000
160.00; 5.845;0.500;21.000
170.00; 5.870;0.500;23.000
180.00; 5.885;0.500;25.000
190.00; 5.910;0.500;26.000
200.00; 5.925;0.500;28.000
210.00; 5.940;0.500;29.000
220.00; 5.950;0.500;30.000
230.00; 5.975;0.500;32.000
240.00; 5.985;0.500;33.000
250.00; 5.990;0.500;34.000
260.00; 6.030;0.500;36.000
270.00; 6.020;0.500;37.000
280.00; 6.020;0.500;38.000
290.00; 6.030;0.500;40.000
300.00; 6.055;0.500;41.000
310.00; 6.070;0.500;42.000
320.00; 6.070;0.500;44.000
330.00; 6.075;0.500;45.000
340.00; 6.095;0.500;46.000
350.00; 6.100;0.500;48.000
360.00; 6.110;0.500;50.000
370.00; 6.120;0.500;51.000
380.00; 6.125;0.500;53.000
390.00; 6.125;0.500;54.000
400.00; 6.135;0.500;55.000
410.00; 6.140;0.500;57.000
420.00; 6.140;0.500;58.000
430.00; 6.155;0.500;59.000
440.00; 6.165;0.500;61.000
450.00; 6.170;0.500;62.000
460.00; 6.160;0.500;63.000
470.00; 6.170;0.500;65.000
480.00; 6.185;0.500;66.000
490.00; 6.180;0.500;67.000
500.00; 6.210;0.500;69.000
510.00; 6.215;0.500;70.000
520.00; 6.210;0.500;71.000
530.00; 6.215;0.500;73.000
540.00; 6.200;0.500;75.000
550.00; 6.230;0.500;76.000
560.00; 6.240;0.500;78.000
570.00; 6.210;0.500;79.000
580.00; 6.240;0.500;80.000
590.00; 6.255;0.500;82.000
600.00; 6.245;0.500;83.000
610.00; 6.255;0.500;84.000
620.00; 6.260;0.500;86.000
630.00; 6.275;0.500;87.000
640.00; 6.260;0.500;88.000
650.00; 6.270;0.500;90.000
660.00; 6.275;0.500;91.000
670.00; 6.285;0.500;92.000
680.00; 6.285;0.500;94.000
690.00; 6.285;0.500;95.000
700.00; 6.305;0.500;96.000
710.00; 6.305;0.500;98.000
720.00; 6.315;0.500;100.000
730.00; 6.300;0.500;101.000
740.00; 6.305;0.500;103.000
750.00; 6.330;0.500;104.000
760.00; 6.320;0.500;105.000
770.00; 6.320;0.500;107.000
780.00; 6.315;0.500;108.000
790.00; 6.330;0.500;109.000
800.00; 6.330;0.500;111.000
810.00; 6.340;0.500;112.000
820.00; 6.335;0.500;113.000
830.00; 6.335;0.500;115.000
840.00; 6.335;0.500;116.000
850.00; 6.355;0.500;117.000
860.00; 6.360;0.500;119.000
870.00; 6.360;0.500;120.000
880.00; 6.365;0.500;121.000
890.00; 6.365;0.500;123.000
900.00; 6.370;0.500;125.000
910.00; 6.360;0.500;126.000
920.00; 6.380;0.500;128.000
930.00; 6.380;0.500;129.000
940.00; 6.360;0.500;130.000
950.00; 6.375;0.500;132.000
960.00; 6.390;0.500;133.000
970.00; 6.390;0.500;134.000
980.00; 6.390;0.500;136.000
990.00; 6.395;0.500;137.000
1000.00; 6.395;0.500;138.000
1010.00; 6.395;0.500;140.000
1020.00; 6.405;0.500;141.000
1030.00; 6.410;0.500;142.000
1040.00; 6.405;0.500;144.000
1050.00; 6.410;0.500;145.000
1060.00; 6.410;0.500;146.000
1070.00; 6.425;0.500;148.000
1080.00; 6.425;0.500;150.000
1090.00; 6.430;0.500;151.000
1100.00; 6.420;0.500;153.000
1110.00; 6.435;0.500;154.000
1120.00; 6.440;0.500;155.000
1130.00; 6.435;0.500;157.000
1140.00; 6.410;0.500;158.000
1150.00; 6.445;0.500;159.000
1160.00; 6.440;0.500;161.000
1170.00; 6.455;0.500;162.000
1180.00; 6.470;0.500;163.000
1190.00; 6.460;0.500;165.000
1200.00; 6.455;0.500;166.000
1210.00; 6.465;0.500;167.000
1220.00; 6.455;0.500;169.000
1230.00; 6.455;0.500;170.000
1240.00; 6.475;0.500;171.000
1250.00; 6.470;0.500;173.000
1260.00; 6.470;0.500;175.000
1270.00; 6.470;0.500;176.000
1280.00; 6.470;0.500;178.000
1290.00; 6.480;0.500;179.000
1300.00; 6.475;0.500;180.000
1310.00; 6.470;0.500;182.000
1320.00; 6.485;0.500;183.000
1330.00; 6.490;0.500;184.000
1340.00; 6.470;0.500;186.000
1350.00; 6.495;0.500;187.000
1360.00; 6.495;0.500;188.000
1370.00; 6.490;0.500;190.000
1380.00; 6.495;0.500;191.000
1390.00; 6.515;0.500;192.000
1400.00; 6.500;0.500;194.000
1410.00; 6.510;0.500;195.000
1420.00; 6.495;0.500;196.000
1430.00; 6.515;0.500;198.000
1440.00; 6.525;0.500;200.000
1450.00; 6.525;0.500;201.000
1460.00; 6.525;0.500;203.000
1470.00; 6.530;0.500;204.000
1480.00; 6.530;0.500;205.000
1490.00; 6.530;0.500;207.000
1500.00; 6.530;0.500;208.000
1510.00; 6.545;0.500;209.000
1520.00; 6.530;0.500;211.000
1530.00; 6.525;0.500;212.000
1540.00; 6.525;0.500;213.000
1550.00; 6.540;0.500;215.000
1560.00; 6.540;0.500;216.000
1570.00; 6.545;0.500;217.000
1580.00; 6.540;0.500;219.000
1590.00; 6.555;0.500;220.000
1600.00; 6.545;0.500;221.000
1610.00; 6.545;0.500;223.000
1620.00; 6.560;0.500;225.000
1630.00; 6.545;0.500;226.000
1640.00; 6.560;0.500;228.000
1650.00; 6.550;0.500;229.000
1660.00; 6.555;0.500;230.000
1670.00; 6.570;0.500;232.000
1680.00; 6.580;0.500;233.000
1690.00; 6.555;0.500;234.000
1700.00; 6.575;0.500;236.000
1710.00; 6.570;0.500;237.000
1720.00; 6.575;0.500;238.000
1730.00; 6.580;0.500;240.000
1740.00; 6.570;0.500;241.000
1750.00; 6.575;0.500;242.000
1760.00; 6.575;0.500;244.000
1770.00; 6.575;0.500;245.000
1780.00; 6.585;0.500;246.000
1790.00; 6.570;0.500;248.000
1800.00; 6.585;0.500;250.000
1810.00; 6.600;0.500;251.000
1820.00; 6.595;0.500;253.000
1830.00; 6.590;0.500;254.000
1840.00; 6.605;0.500;255.000
1850.00; 6.585;0.500;257.000
1860.00; 6.600;0.500;258.000
1870.00; 6.600;0.500;259.000
1880.00; 6.585;0.500;261.000
1890.00; 6.605;0.500;262.000
1900.00; 6.605;0.500;263.000
1910.00; 6.615;0.500;265.000
1920.00; 6.610;0.500;266.000
1930.00; 6.620;0.500;267.000
1940.00; 6.630;0.500;269.000
1950.00; 6.625;0.500;270.000
1960.00; 6.605;0.500;271.000
1970.00; 6.605;0.500;273.000
1980.00; 6.620;0.500;275.000
1990.00; 6.610;0.500;276.000
2000.00; 6.635;0.500;278.000
2010.00; 6.630;0.500;279.000
2020.00; 6.605;0.500;280.000
2030.00; 6.630;0.500;282.000
2040.00; 6.625;0.500;283.000
2050.00; 6.625;0.500;284.000
2060.00; 6.635;0.500;286.000
2070.00; 6.635;0.500;287.000
2080.00; 6.630;0.500;288.000
2090.00; 6.635;0.500;290.000
2100.00; 6.645;0.500;291.000
2110.00; 6.640;0.500;292.000
2120.00; 6.635;0.500;294.000
2130.00; 6.640;0.500;295.000
2140.00; 6.630;0.500;296.000
2150.00; 6.640;0.500;298.000
2160.00; 6.645;0.500;300.000
2170.00; 6.640;0.500;301.000
2180.00; 6.655;0.500;303.000
2190.00; 6.620;0.500;304.000
2200.00; 6.655;0.500;305.000
2210.00; 6.650;0.500;307.000
2220.00; 6.635;0.500;308.000
2230.00; 6.660;0.500;309.000
2240.00; 6.640;0.500;311.000
2250.00; 6.650;0.500;312.000
2260.00; 6.675;0.500;313.000
2270.00; 6.660;0.500;315.000
2280.00; 6.645;0.500;316.000
2290.00; 6.650;0.500;317.000
2300.00; 6.675;0.500;319.000
2310.00; 6.660;0.500;320.000
2320.00; 6.660;0.500;321.000
2330.00; 6.675;0.500;323.000
2340.00; 6.675;0.500;325.000
2350.00; 6.670;0.500;326.000
2360.00; 6.670;0.500;328.000
2370.00; 6.675;0.500;329.000
2380.00; 6.665;0.500;330.000
2390.00; 6.670;0.500;332.000
2400.00; 6.670;0.500;333.000
2410.00; 6.675;0.500;334.000
2420.00; 6.675;0.500;336.000
2430.00; 6.670;0.500;337.000
2440.00; 6.675;0.500;338.000
2450.00; 6.675;0.500;340.000
2460.00; 6.690;0.500;341.000
2470.00; 6.680;0.500;342.000
2480.00; 6.675;0.500;344.000
2490.00; 6.670;0.500;345.000
2500.00; 6.690;0.500;346.000
2510.00; 6.685;0.500;348.000
2520.00; 6.690;0.500;350.000
2530.00; 6.680;0.500;351.000
2540.00; 6.675;0.500;353.000
2550.00; 6.695;0.500;354.000
2560.00; 6.705;0.500;355.000
2570.00; 6.690;0.500;357.000
2580.00; 6.690;0.500;358.000
2590.00; 6.700;0.500;359.000
2600.00; 6.695;0.500;361.000
2610.00; 6.705;0.500;362.000
2620.00; 6.695;0.500;363.000
2630.00; 6.695;0.500;365.000
2640.00; 6.700;0.500;366.000
2650.00; 6.695;0.500;367.000
2660.00; 6.690;0.500;369.000
2670.00; 6.710;0.500;370.000
2680.00; 6.705;0.500;371.000
2690.00; 6.705;0.500;373.000
2700.00; 6.700;0.500;375.000
2710.00; 6.710;0.500;376.000
2720.00; 6.710;0.500;378.000
2730.00; 6.690;0.500;379.000
2740.00; 6.690;0.500;380.000
2750.00; 6.710;0.500;382.000
2760.00; 6.705;0.500;383.000
2770.00; 6.705;0.500;384.000
2780.00; 6.705;0.500;386.000
2790.00; 6.710;0.500;387.000
2800.00; 6.710;0.500;388.000
2810.00; 6.710;0.500;390.000
2820.00; 6.715;0.500;391.000
2830.00; 6.705;0.500;392.000
2840.00; 6.720;0.500;394.000
2850.00; 6.725;0.500;395.000
2860.00; 6.720;0.500;396.000
2870.00; 6.725;0.500;398.000
2880.00; 6.720;0.500;400.000
2890.00; 6.715;0.500;401.000
2900.00; 6.720;0.500;403.000
2910.00; 6.710;0.500;404.000
2920.00; 6.710;0.500;405.000
2930.00; 6.720;0.500;407.000
2940.00; 6.725;0.500;408.000
2950.00; 6.720;0.500;409.000
2960.00; 6.725;0.500;411.000
2970.00; 6.725;0.500;412.000
2980.00; 6.720;0.500;413.000
2990.00; 6.720;0.500;415.000
3000.00; 6.735;0.500;416.000
3010.00; 6.735;0.500;417.000
3020.00; 6.725;0.500;419.000
3030.00; 6.740;0.500;420.000
3040.00; 6.735;0.500;421.000
3050.00; 6.725;0.500;423.000
3060.00; 6.730;0.500;425.000
3070.00; 6.735;0.500;426.000
3080.00; 6.735;0.500;428.000
3090.00; 6.725;0.500;429.000
3100.00; 6.720;0.500;430.000
3110.00; 6.735;0.500;432.000
3120.00; 6.735;0.500;433.000
3130.00; 6.745;0.500;434.000
3140.00; 6.750;0.500;436.000
3150.00; 6.740;0.500;437.000
3160.00; 6.740;0.500;438.000
3170.00; 6.745;0.500;440.000
3180.00; 6.740;0.500;441.000
3190.00; 6.740;0.500;442.000
3200.00; 6.740;0.500;444.000
3210.00; 6.740;0.500;445.000
3220.00; 6.735;0.500;446.000
3230.00; 6.740;0.500;448.000
3240.00; 6.735;0.500;450.000
3250.00; 6.750;0.500;451.000
3260.00; 6.735;0.500;453.000
3270.00; 6.745;0.500;454.000
3280.00; 6.750;0.500;455.000
3290.00; 6.740;0.500;457.000
3300.00; 6.760;0.500;458.000
3310.00; 6.745;0.500;459.000
3320.00; 6.755;0.500;461.000
3330.00; 6.750;0.500;462.000
3340.00; 6.735;0.500;463.000
3350.00; 6.745;0.500;465.000
3360.00; 6.750;0.500;466.000
3370.00; 6.745;0.500;467.000
3380.00; 6.755;0.500;469.000
3390.00; 6.755;0.500;470.000
3400.00; 6.755;0.500;471.000
3410.00; 6.750;0.500;473.000
3420.00; 6.760;0.500;475.000
3430.00; 6.765;0.500;476.000
3440.00; 6.770;0.500;478.000
3450.00; 6.765;0.500;479.000
3460.00; 6.760;0.500;480.000
3470.00; 6.765;0.500;482.000
3480.00; 6.755;0.500;483.000
3490.00; 6.770;0.500;484.000
3500.00; 6.765;0.500;486.000
3510.00; 6.765;0.500;487.000
3520.00; 6.755;0.500;488.000
3530.00; 6.770;0.500;490.000
3540.00; 6.760;0.500;491.000
3550.00; 6.750;0.500;492.000
3560.00; 6.770;0.500;494.000
3570.00; 6.770;0.500;495.000
3580.00; 6.765;0.500;496.000
3590.00; 6.770;0.500;498.000
3600.00; 6.770;0.500;500.000
3610.00; 6.770;0.500;501.000
3620.00; 6.780;0.500;503.000
3630.00; 6.780;0.500;504.000
3640.00; 6.770;0.500;505.000
3650.00; 6.765;0.500;507.000
3660.00; 6.780;0.500;508.000
3670.00; 6.780;0.500;509.000
3680.00; 6.780;0.500;511.000
3690.00; 6.760;0.500;512.000
3700.00; 6.775;0.500;513.000
3710.00; 6.785;0.500;515.000
3720.00; 6.780;0.500;516.000
3730.00; 6.770;0.500;517.000
3740.00; 6.775;0.500;519.000
3750.00; 6.780;0.500;520.000
3760.00; 6.785;0.500;521.000
3770.00; 6.780;0.500;523.000
3780.00; 6.785;0.500;525.000
3790.00; 6.795;0.500;526.000
3800.00; 6.775;0.500;528.000
3810.00; 6.755;0.500;529.000
3820.00; 6.775;0.500;530.000
3830.00; 6.785;0.500;532.000
3840.00; 6.780;0.500;533.000
3850.00; 6.785;0.500;534.000
3860.00; 6.785;0.500;536.000
3870.00; 6.790;0.500;537.000
3880.00; 6.785;0.500;538.000
3890.00; 6.800;0.500;540.000
3900.00; 6.780;0.500;541.000
3910.00; 6.780;0.500;542.000
3920.00; 6.795;0.500;544.000
3930.00; 6.785;0.500;545.000
3940.00; 6.800;0.500;546.000
3950.00; 6.795;0.500;548.000
3960.00; 6.790;0.500;550.000
3970.00; 6.795;0.500;551.000
3980.00; 6.795;0.500;553.000
3990.00; 6.810;0.500;554.000
4000.00; 6.800;0.500;555.000
4010.00; 6.795;0.500;557.000
4020.00; 6.795;0.500;558.000
4030.00; 6.785;0.500;559.000
4040.00; 6.800;0.500;561.000
4050.00; 6.795;0.500;562.000
4060.00; 6.785;0.500;563.000
4070.00; 6.810;0.500;565.000
4080.00; 6.800;0.500;566.000
4090.00; 6.790;0.500;567.000
4100.00; 6.795;0.500;569.000
4110.00; 6.815;0.500;570.000
4120.00; 6.795;0.500;571.000
4130.00; 6.780;0.500;573.000
4140.00; 6.785;0.500;575.000
4150.00; 6.795;0.500;576.000
4160.00; 6.780;0.500;578.000
4170.00; 6.790;0.500;579.000
4180.00; 6.815;0.500;580.000
4190.00; 6.805;0.500;582.000
4200.00; 6.810;0.500;583.000
4210.00; 6.810;0.500;584.000
4220.00; 6.795;0.500;586.000
4230.00; 6.795;0.500;587.000
4240.00; 6.800;0.500;588.000
4250.00; 6.815;0.500;590.000
4260.00; 6.795;0.500;591.000
4270.00; 6.815;0.500;592.000
4280.00; 6.810;0.500;594.000
4290.00; 6.810;0.500;595.000
4300.00; 6.810;0.500;596.000
4310.00; 6.825;0.500;598.000
4320.00; 6.810;0.500;600.000
4330.00; 6.830;0.500;601.000
4340.00; 6.815;0.500;603.000
4350.00; 6.800;0.500;604.000
4360.00; 6.810;0.500;605.000
4370.00; 6.815;0.500;607.000
4380.00; 6.815;0.500;608.000
4390.00; 6.825;0.500;609.000
4400.00; 6.820;0.500;611.000
4410.00; 6.815;0.500;612.000
4420.00; 6.810;0.500;613.000
4430.00; 6.810;0.500;615.000
4440.00; 6.820;0.500;616.000
4450.00; 6.800;0.500;617.000
4460.00; 6.815;0.500;619.000
4470.00; 6.825;0.500;620.000
4480.00; 6.825;0.500;621.000
4490.00; 6.810;0.500;623.000
4500.00; 6.815;0.500;625.000
4510.00; 6.825;0.500;626.000
4520.00; 6.815;0.500;628.000
4530.00; 6.825;0.500;629.000
4540.00; 6.815;0.500;630.000
4550.00; 6.825;0.500;632.000
4560.00; 6.825;0.500;633.000
4570.00; 6.815;0.500;634.000
4580.00; 6.815;0.500;636.000
4590.00; 6.830;0.500;637.000
4600.00; 6.815;0.500;638.000
4610.00; 6.830;0.500;640.000
4620.00; 6.820;0.500;641.000
4630.00; 6.825;0.500;642.000
4640.00; 6.830;0.500;644.000
4650.00; 6.825;0.500;645.000
4660.00; 6.830;0.500;646.000
4670.00; 6.815;0.500;648.000
4680.00; 6.815;0.500;650.000
4690.00; 6.825;0.500;651.000
4700.00; 6.830;0.500;653.000
4710.00; 6.815;0.500;654.000
4720.00; 6.835;0.500;655.000
4730.00; 6.845;0.500;657.000
4740.00; 6.810;0.500;658.000
4750.00; 6.805;0.500;659.000
4760.00; 6.830;0.500;661.000
4770.00; 6.825;0.500;662.000
4780.00; 6.825;0.500;663.000
4790.00; 6.840;0.500;665.000
4800.00; 6.820;0.500;666.000
4810.00; 6.840;0.500;667.000
4820.00; 6.815;0.500;669.000
4830.00; 6.830;0.500;670.000
4840.00; 6.840;0.500;671.000
4850.00; 6.835;0.500;673.000
4860.00; 6.845;0.500;675.000
4870.00; 6.835;0.500;676.000
4880.00; 6.840;0.500;678.000
4890.00; 6.830;0.500;679.000
4900.00; 6.850;0.500;680.000
4910.00; 6.840;0.500;682.000
4920.00; 6.820;0.500;683.000
4930.00; 6.830;0.500;684.000
4940.00; 6.830;0.500;686.000
4950.00; 6.845;0.500;687.000
4960.00; 6.830;0.500;688.000
4970.00; 6.840;0.500;690.000
4980.00; 6.845;0.500;691.000
4990.00; 6.840;0.500;692.000
5000.00; 6.850;0.500;694.000
5010.00; 6.825;0.500;695.000
5020.00; 6.850;0.500;696.000
5030.00; 6.850;0.500;698.000
5040.00; 6.845;0.500;700.000
5050.00; 6.840;0.500;701.000
5060.00; 6.855;0.500;703.000
5070.00; 6.850;0.500;704.000
5080.00; 6.850;0.500;705.000
5090.00; 6.835;0.500;707.000
5100.00; 6.860;0.500;708.000
5110.00; 6.850;0.500;709.000
5120.00; 6.855;0.500;711.000
5130.00; 6.845;0.500;712.000
5140.00; 6.855;0.500;713.000
5150.00; 6.840;0.500;715.000
5160.00; 6.845;0.500;716.000
5170.00; 6.835;0.500;717.000
5180.00; 6.855;0.500;719.000
5190.00; 6.840;0.500;720.000
5200.00; 6.840;0.500;721.000
5210.00; 6.850;0.500;723.000
5220.00; 6.855;0.500;725.000
5230.00; 6.845;0.500;726.000
5240.00; 6.855;0.500;728.000
5250.00; 6.850;0.500;729.000
5260.00; 6.855;0.500;730.000
5270.00; 6.845;0.500;732.000
5280.00; 6.860;0.500;733.000
5290.00; 6.850;0.500;734.000
5300.00; 6.845;0.500;736.000
5310.00; 6.855;0.500;737.000
5320.00; 6.870;0.500;738.000
5330.00; 6.860;0.500;740.000
5340.00; 6.850;0.500;741.000
5350.00; 6.860;0.500;742.000
5360.00; 6.870;0.500;744.000
5370.00; 6.860;0.500;745.000
5380.00; 6.855;0.500;746.000
5390.00; 6.865;0.500;748.000
5400.00; 6.845;0.500;750.000
5410.00; 6.855;0.500;751.000
5420.00; 6.860;0.500;753.000
5430.00; 6.845;0.500;754.000
5440.00; 6.865;0.500;755.000
5450.00; 6.840;0.500;757.000
5460.00; 6.860;0.500;758.000
5470.00; 6.865;0.500;759.000
5480.00; 6.860;0.500;761.000
5490.00; 6.860;0.500;762.000
5500.00; 6.860;0.500;763.000
5510.00; 6.860;0.500;765.000
5520.00; 6.870;0.500;766.000
5530.00; 6.860;0.500;767.000
5540.00; 6.865;0.500;769.000
5550.00; 6.875;0.500;770.000
5560.00; 6.855;0.500;771.000
5570.00; 6.870;0.500;773.000
5580.00; 6.865;0.500;775.000
5590.00; 6.865;0.500;776.000
5600.00; 6.870;0.500;778.000
5610.00; 6.870;0.500;779.000
5620.00; 6.860;0.500;780.000
5630.00; 6.875;0.500;782.000
5640.00; 6.870;0.500;783.000
5650.00; 6.865;0.500;784.000
5660.00; 6.870;0.500;786.000
5670.00; 6.860;0.500;787.000
5680.00; 6.860;0.500;788.000
5690.00; 6.875;0.500;790.000
5700.00; 6.875;0.500;791.000
5710.00; 6.875;0.500;792.000
5720.00; 6.875;0.500;794.000
5730.00; 6.865;0.500;795.000
5740.00; 6.870;0.500;796.000
5750.00; 6.860;0.500;798.000
5760.00; 6.860;0.500;800.000
5770.00; 6.885;0.500;801.000
5780.00; 6.875;0.500;803.000
5790.00; 6.865;0.500;804.000
5800.00; 6.885;0.500;805.000
5810.00; 6.875;0.500;807.000
5820.00; 6.865;0.500;808.000
5830.00; 6.870;0.500;809.000
5840.00; 6.875;0.500;811.000
5850.00; 6.875;0.500;812.000
5860.00; 6.895;0.500;813.000
5870.00; 6.880;0.500;815.000
5880.00; 6.880;0.500;816.000
5890.00; 6.875;0.500;817.000
5900.00; 6.875;0.500;819.000
5910.00; 6.880;0.500;820.000
5920.00; 6.875;0.500;821.000
5930.00; 6.885;0.500;823.000
5940.00; 6.885;0.500;825.000
5950.00; 6.875;0.500;826.000
5960.00; 6.875;0.500;828.000
5970.00; 6.885;0.500;829.000
5980.00; 6.890;0.500;830.000
5990.00; 6.880;0.500;832.000
6000.00; 6.880;0.500;833.000
6010.00; 6.885;0.500;834.000
6020.00; 6.890;0.500;836.000
6030.00; 6.890;0.500;837.000
6040.00; 6.890;0.500;838.000
6050.00; 6.885;0.500;840.000
6060.00; 6.890;0.500;841.000
6070.00; 6.875;0.500;842.000
6080.00; 6.875;0.500;844.000
6090.00; 6.870;0.500;845.000
6100.00; 6.885;0.500;846.000
6110.00; 6.890;0.500;848.000
6120.00; 6.885;0.500;850.000
6130.00; 6.895;0.500;851.000
6140.00; 6.900;0.500;853.000
6150.00; 6.885;0.500;854.000
6160.00; 6.900;0.500;855.000
6170.00; 6.885;0.500;857.000
6180.00; 6.890;0.500;858.000
6190.00; 6.895;0.500;859.000
6200.00; 6.875;0.500;861.000
6210.00; 6.885;0.500;862.000
6220.00; 6.875;0.500;863.000
6230.00; 6.890;0.500;865.000
6240.00; 6.880;0.500;866.000
6250.00; 6.885;0.500;867.000
6260.00; 6.895;0.500;868.000
6270.00; 6.870;0.500;870.000
6280.00; 6.885;0.500;871.000
6290.00; 6.895;0.500;873.000
6300.00; 6.895;0.500;875.000
6310.00; 6.885;0.500;876.000
6320.00; 6.885;0.500;878.000
6330.00; 6.890;0.500;879.000
6340.00; 6.895;0.500;880.000
6350.00; 6.870;0.500;882.000
6360.00; 6.895;0.500;883.000
6370.00; 6.890;0.500;884.000
6380.00; 6.890;0.500;885.000
6390.00; 6.905;0.500;887.000
6400.00; 6.885;0.500;888.000
6410.00; 6.905;0.500;890.000
6420.00; 6.885;0.500;891.000
6430.00; 6.875;0.500;892.000
6440.00; 6.890;0.500;893.000
6450.00; 6.885;0.500;895.000
6460.00; 6.885;0.500;896.000
6470.00; 6.895;0.500;898.000
6480.00; 6.900;0.500;900.000
6490.00; 6.885;0.500;901.000
6500.00; 6.880;0.500;902.000
6510.00; 6.905;0.500;904.000
6520.00; 6.905;0.500;905.000
6530.00; 6.890;0.500;907.000
6540.00; 6.910;0.500;908.000
6550.00; 6.915;0.500;909.000
6560.00; 6.895;0.500;910.000
6570.00; 6.900;0.500;912.000
6580.00; 6.890;0.500;913.000
6590.00; 6.895;0.500;915.000
6600.00; 6.905;0.500;916.000
6610.00; 6.900;0.500;917.000
6620.00; 6.900;0.500;918.000
6630.00; 6.895;0.500;920.000
6640.00; 6.900;0.500;921.000
6650.00; 6.900;0.500;923.000
6660.00; 6.905;0.500;925.000
6670.00; 6.890;0.500;926.000
6680.00; 6.875;0.500;927.000
6690.00; 6.905;0.500;929.000
6700.00; 6.905;0.500;930.000
6710.00; 6.915;0.500;932.000
6720.00; 6.905;0.500;933.000
6730.00; 6.890;0.500;934.000
6740.00; 6.900;0.500;935.000
6750.00; 6.915;0.500;937.000
6760.00; 6.890;0.500;938.000
6770.00; 6.900;0.500;940.000
6780.00; 6.885;0.500;941.000
6790.00; 6.910;0.500;942.000
6800.00; 6.905;0.500;943.000
6810.00; 6.905;0.500;945.000
6820.00; 6.920;0.500;946.000
6830.00; 6.910;0.500;948.000
6840.00; 6.925;0.500;950.000
6850.00; 6.910;0.500;951.000
6860.00; 6.900;0.500;952.000
6870.00; 6.910;0.500;954.000
6880.00; 6.915;0.500;955.000
6890.00; 6.900;0.500;957.000
6900.00; 6.920;0.500;958.000
6910.00; 6.915;0.500;959.000
6920.00; 6.915;0.500;960.000
6930.00; 6.930;0.500;962.000
6940.00; 6.910;0.500;963.000
6950.00; 6.915;0.500;965.000
6960.00; 6.915;0.500;966.000
6970.00; 6.915;0.500;967.000
6980.00; 6.915;0.500;968.000
6990.00; 6.920;0.500;970.000
7000.00; 6.920;0.500;971.000
7010.00; 6.900;0.500;973.000
7020.00; 6.900;0.500;975.000
7030.00; 6.915;0.500;976.000
7040.00; 6.910;0.500;977.000
7050.00; 6.920;0.500;979.000
7060.00; 6.925;0.500;980.000
7070.00; 6.910;0.500;982.000
7080.00; 6.905;0.500;983.000
7090.00; 6.910;0.500;984.000
7100.00; 6.915;0.500;985.000
7110.00; 6.915;0.500;987.000
7120.00; 6.910;0.500;988.000
7130.00; 6.915;0.500;990.000
7140.00; 6.915;0.500;991.000
7150.00; 6.930;0.500;992.000
7160.00; 6.920;0.500;993.000
7170.00; 6.915;0.500;995.000
7180.00; 6.905;0.500;996.000
7190.00; 6.920;0.500;998.000
7200.00; 6.905;0.500;1000.000
7210.00; 6.915;0.500;1001.000
7220.00; 6.920;0.500;1002.000
7230.00; 6.920;0.500;1004.000
7240.00; 6.920;0.500;1005.000
7250.00; 6.920;0.500;1007.000
7260.00; 6.910;0.500;1008.000
7270.00; 6.925;0.500;1009.000
7280.00; 6.915;0.500;1010.000
7290.00; 6.915;0.500;1012.000
7300.00; 6.935;0.500;1013.000
7310.00; 6.930;0.500;1015.000
7320.00; 6.925;0.500;1016.000
7330.00; 6.920;0.500;1017.000
7340.00; 6.915;0.500;1018.000
7350.00; 6.920;0.500;1020.000
7360.00; 6.925;0.500;1021.000
7370.00; 6.915;0.500;1023.000
7380.00; 6.935;0.500;1025.000
7390.00; 6.920;0.500;1026.000
7400.00; 6.945;0.500;1027.000
7410.00; 6.920;0.500;1029.000
7420.00; 6.915;0.500;1030.000
7430.00; 6.905;0.500;1032.000
7440.00; 6.930;0.500;1033.000
7450.00; 6.920;0.500;1034.000
7460.00; 6.930;0.500;1035.000
7470.00; 6.930;0.500;1037.000
7480.00; 6.925;0.500;1038.000
7490.00; 6.930;0.500;1040.000
7500.00; 6.925;0.500;1041.000
7510.00; 6.920;0.500;1042.000
7520.00; 6.925;0.500;1043.000
7530.00; 6.930;0.500;1045.000
7540.00; 6.925;0.500;1046.000
7550.00; 6.925;0.500;1048.000
7560.00; 6.920;0.500;1050.000
7570.00; 6.920;0.500;1051.000
7580.00; 6.920;0.500;1052.000
7590.00; 6.930;0.500;1054.000
7600.00; 6.920;0.500;1055.000
7610.00; 6.925;0.500;1057.000
7620.00; 6.935;0.500;1058.000
7630.00; 6.920;0.500;1059.000
7640.00; 6.920;0.500;1060.000
7650.00; 6.935;0.500;1062.000
7660.00; 6.925;0.500;1063.000
7670.00; 6.940;0.500;1065.000
7680.00; 6.930;0.500;1066.000
7690.00; 6.925;0.500;1067.000
7700.00; 6.920;0.500;1068.000
7710.00; 6.925;0.500;1070.000
7720.00; 6.930;0.500;1071.000
7730.00; 6.910;0.500;1073.000
7740.00; 6.920;0.500;1075.000
7750.00; 6.935;0.500;1076.000
7760.00; 6.930;0.500;1077.000
7770.00; 6.935;0.500;1079.000
7780.00; 6.945;0.500;1080.000
7790.00; 6.920;0.500;1082.000
7800.00; 6.925;0.500;1083.000
7810.00; 6.935;0.500;1084.000
7820.00; 6.920;0.500;1085.000
7830.00; 6.920;0.500;1087.000
7840.00; 6.930;0.500;1088.000
7850.00; 6.930;0.500;1090.000
7860.00; 6.930;0.500;1091.000
7870.00; 6.940;0.500;1092.000
7880.00; 6.930;0.500;1093.000
7890.00; 6.930;0.500;1095.000
7900.00; 6.940;0.500;1096.000
7910.00; 6.920;0.500;1098.000
7920.00; 6.925;0.500;1100.000
7930.00; 6.945;0.500;1101.000
7940.00; 6.930;0.500;1102.000
7950.00; 6.935;0.500;1104.000
7960.00; 6.940;0.500;1105.000
7970.00; 6.920;0.500;1107.000
7980.00; 6.935;0.500;1108.000
7990.00; 6.935;0.500;1109.000
8000.00; 6.935;0.500;1110.000
8010.00; 6.935;0.500;1112.000
8020.00; 6.935;0.500;1113.000
8030.00; 6.930;0.500;1115.000
8040.00; 6.935;0.500;1116.000
8050.00; 6.935;0.500;1117.000
8060.00; 6.960;0.500;1118.000
8070.00; 6.945;0.500;1120.000
8080.00; 6.935;0.500;1121.000
8090.00; 6.955;0.500;1123.000
8100.00; 6.935;0.500;1125.000
8110.00; 6.935;0.500;1126.000
8120.00; 6.945;0.500;1127.000
8130.00; 6.930;0.500;1129.000
8140.00; 6.930;0.500;1130.000
8150.00; 6.935;0.500;1132.000
8160.00; 6.940;0.500;1133.000
8170.00; 6.940;0.500;1134.000
8180.00; 6.935;0.500;1135.000
8190.00; 6.935;0.500;1137.000
8200.00; 6.945;0.500;1138.000
8210.00; 6.940;0.500;1140.000
8220.00; 6.920;0.500;1141.000
8230.00; 6.950;0.500;1142.000
8240.00; 6.950;0.500;1143.000
8250.00; 6.945;0.500;1145.000
8260.00; 6.935;0.500;1146.000
8270.00; 6.935;0.500;1148.000
8280.00; 6.950;0.500;1150.000
8290.00; 6.935;0.500;1151.000
8300.00; 6.945;0.500;1152.000
8310.00; 6.950;0.500;1154.000
8320.00; 6.935;0.500;1155.000
8330.00; 6.945;0.500;1157.000
8340.00; 6.930;0.500;1158.000
8350.00; 6.940;0.500;1159.000
8360.00; 6.950;0.500;1160.000
8370.00; 6.945;0.500;1162.000
8380.00; 6.950;0.500;1163.000
8390.00; 6.950;0.500;1165.000
8400.00; 6.945;0.500;1166.000
8410.00; 6.945;0.500;1167.000
8420.00; 6.945;0.500;1168.000
8430.00; 6.960;0.500;1170.000
8440.00; 6.935;0.500;1171.000
8450.00; 6.945;0.500;1173.000
8460.00; 6.950;0.500;1175.000
8470.00; 6.935;0.500;1176.000
8480.00; 6.945;0.500;1177.000
8490.00; 6.950;0.500;1179.000
8500.00; 6.950;0.500;1180.000
8510.00; 6.940;0.500;1182.000
8520.00; 6.940;0.500;1183.000
8530.00; 6.945;0.500;1184.000
8540.00; 6.950;0.500;1185.000
8550.00; 6.950;0.500;1187.000
8560.00; 6.950;0.500;1188.000
8570.00; 6.960;0.500;1190.000
8580.00; 6.940;0.500;1191.000
8590.00; 6.955;0.500;1192.000
8600.00; 6.955;0.500;1193.000
8610.00; 6.960;0.500;1195.000
8620.00; 6.955;0.500;1196.000
8630.00; 6.960;0.500;1198.000
8640.00; 6.955;0.500;1200.000
8650.00; 6.945;0.500;1201.000
8660.00; 6.945;0.500;1202.000
8670.00; 6.940;0.500;1204.000
8680.00; 6.940;0.500;1205.000
8690.00; 6.950;0.500;1207.000
8700.00; 6.960;0.500;1208.000
8710.00; 6.945;0.500;1209.000
8720.00; 6.950;0.500;1210.000
8730.00; 6.955;0.500;1212.000
8740.00; 6.970;0.500;1213.000
8750.00; 6.965;0.500;1215.000
8760.00; 6.940;0.500;1216.000
8770.00; 6.945;0.500;1217.000
8780.00; 6.930;0.500;1218.000
8790.00; 6.960;0.500;1220.000
8800.00; 6.960;0.500;1221.000
8810.00; 6.950;0.500;1223.000
8820.00; 6.955;0.500;1225.000
8830.00; 6.955;0.500;1226.000
8840.00; 6.955;0.500;1227.000
8850.00; 6.940;0.500;1229.000
8860.00; 6.960;0.500;1230.000
8870.00; 6.935;0.500;1232.000
8880.00; 6.925;0.500;1233.000
8890.00; 6.955;0.500;1234.000
8900.00; 6.955;0.500;1235.000
8910.00; 6.950;0.500;1237.000
8920.00; 6.950;0.500;1238.000
8930.00; 6.955;0.500;1240.000
8940.00; 6.960;0.500;1241.000
8950.00; 6.960;0.500;1242.000
8960.00; 6.960;0.500;1243.000
8970.00; 6.955;0.500;1245.000
8980.00; 6.965;0.500;1246.000
8990.00; 6.960;0.500;1248.000
9000.00; 6.950;0.500;1250.000
9010.00; 6.945;0.500;1251.000
9020.00; 6.945;0.500;1252.000
9030.00; 6.970;0.500;1254.000
9040.00; 6.950;0.500;1255.000
9050.00; 6.965;0.500;1257.000
9060.00; 6.960;0.500;1258.000
9070.00; 6.960;0.500;1259.000
9080.00; 6.945;0.500;1260.000
9090.00; 6.960;0.500;1262.000
9100.00; 6.960;0.500;1263.000
9110.00; 6.950;0.500;1265.000
9120.00; 6.975;0.500;1266.000
9130.00; 6.965;0.500;1267.000
9140.00; 6.960;0.500;1268.000
9150.00; 6.955;0.500;1270.000
9160.00; 6.955;0.500;1271.000
9170.00; 6.965;0.500;1273.000
9180.00; 6.965;0.500;1275.000
9190.00; 6.960;0.500;1276.000
9200.00; 6.965;0.500;1277.000
9210.00; 6.955;0.500;1279.000
9220.00; 6.960;0.500;1280.000
9230.00; 6.980;0.500;1282.000
9240.00; 6.955;0.500;1283.000
9250.00; 6.960;0.500;1284.000
9260.00; 6.965;0.500;1285.000
9270.00; 6.975;0.500;1287.000
9280.00; 6.975;0.500;1288.000
9290.00; 6.950;0.500;1290.000
9300.00; 6.960;0.500;1291.000
9310.00; 6.970;0.500;1292.000
9320.00; 6.965;0.500;1293.000
9330.00; 6.965;0.500;1295.000
9340.00; 6.960;0.500;1296.000
9350.00; 6.950;0.500;1298.000
9360.00; 6.960;0.500;1300.000
9370.00; 6.965;0.500;1301.000
9380.00; 6.975;0.500;1302.000
9390.00; 6.960;0.500;1304.000
9400.00; 6.975;0.500;1305.000
9410.00; 6.965;0.500;1307.000
9420.00; 6.970;0.500;1308.000
9430.00; 6.975;0.500;1309.000
9440.00; 6.965;0.500;1310.000
9450.00; 6.965;0.500;1312.000
9460.00; 6.970;0.500;1313.000
9470.00; 6.965;0.500;1315.000
9480.00; 6.965;0.500;1316.000
9490.00; 6.960;0.500;1317.000
9500.00; 6.965;0.500;1318.000
9510.00; 6.975;0.500;1320.000
9520.00; 6.970;0.500;1321.000
9530.00; 6.970;0.500;1323.000
9540.00; 6.970;0.500;1325.000
9550.00; 6.970;0.500;1326.000
9560.00; 6.965;0.500;1327.000
9570.00; 6.985;0.500;1329.000
9580.00; 6.975;0.500;1330.000
9590.00; 6.975;0.500;1332.000
9600.00; 6.970;0.500;1333.000
9610.00; 6.990;0.500;1334.000
9620.00; 6.975;0.500;1335.000
9630.00; 6.970;0.500;1337.000
9640.00; 6.980;0.500;1338.000
9650.00; 6.970;0.500;1340.000
9660.00; 6.975;0.500;1341.000
9670.00; 6.965;0.500;1342.000
9680.00; 6.975;0.500;1343.000
9690.00; 6.980;0.500;1345.000
9700.00; 6.960;0.500;1346.000
9710.00; 6.985;0.500;1348.000
9720.00; 6.960;0.500;1350.000
9730.00; 6.970;0.500;1351.000
9740.00; 6.975;0.500;1352.000
9750.00; 6.975;0.500;1354.000
9760.00; 6.955;0.500;1355.000
9770.00; 6.975;0.500;1357.000
9780.00; 6.980;0.500;1358.000
9790.00; 6.975;0.500;1359.000
9800.00; 6.970;0.500;1360.000
9810.00; 6.965;0.500;1362.000
9820.00; 6.950;0.500;1363.000
9830.00; 6.990;0.500;1364.000
9840.00; 6.975;0.500;1366.000
9850.00; 6.965;0.500;1367.000
9860.00; 6.975;0.500;1368.000
9870.00; 6.960;0.500;1370.000
9880.00; 6.975;0.500;1371.000
9890.00; 6.985;0.500;1373.000
9900.00; 6.980;0.500;1375.000
9910.00; 6.980;0.500;1376.000
9920.00; 6.975;0.500;1377.000
9930.00; 6.975;0.500;1379.000
9940.00; 6.980;0.500;1380.000
9950.00; 6.990;0.500;1381.000
9960.00; 6.990;0.500;1383.000
9970.00; 6.980;0.500;1384.000
9980.00; 6.990;0.500;1385.000
9990.00; 6.995;0.500;1387.000
10000.00; 6.970;0.500;1388.000
10010.00; 6.980;0.500;1389.000
10020.00; 6.975;0.500;1391.000
10030.00; 6.980;0.500;1392.000
10040.00; 6.980;0.500;1393.000
10050.00; 6.980;0.500;1395.000
10060.00; 6.980;0.500;1396.000
10070.00; 6.980;0.500;1397.000
10080.00; 6.975;0.500;1400.000
10090.00; 6.990;0.500;1401.000
10100.00; 6.980;0.500;1402.000
10110.00; 6.985;0.500;1404.000
10120.00; 6.980;0.500;1405.000
10130.00; 6.980;0.500;1406.000
10140.00; 6.980;0.500;1408.000
10150.00; 6.990;0.500;1409.000
10160.00; 6.975;0.500;1410.000
10170.00; 6.995;0.500;1412.000
10180.00; 6.990;0.500;1413.000
10190.00; 6.980;0.500;1414.000
10200.00; 6.990;0.500;1416.000
10210.00; 6.995;0.500;1417.000
10220.00; 6.985;0.500;1418.000
10230.00; 6.995;0.500;1420.000
10240.00; 6.995;0.500;1421.000
10250.00; 6.985;0.500;1422.000
10260.00; 6.990;0.500;1425.000
10270.00; 6.990;0.500;1426.000
10280.00; 6.990;0.500;1427.000
10290.00; 6.995;0.500;1429.000
10300.00; 6.990;0.500;1430.000
10310.00; 6.980;0.500;1431.000
10320.00; 6.995;0.500;1433.000
10330.00; 6.980;0.500;1434.000
10340.00; 6.990;0.500;1435.000
10350.00; 6.980;0.500;1437.000
10360.00; 6.985;0.500;1438.000
10370.00; 7.000;0.500;1439.000
10380.00; 6.995;0.500;1441.000
10390.00; 6.990;0.500;1442.000
10400.00; 6.990;0.500;1443.000
10410.00; 6.995;0.500;1445.000
10420.00; 7.000;0.500;1446.000
10430.00; 6.980;0.500;1447.000
10440.00; 6.990;0.500;1450.000
10450.00; 6.995;0.500;1451.000
10460.00; 6.990;0.500;1452.000
10470.00; 6.995;0.500;1454.000
10480.00; 6.995;0.500;1455.000
10490.00; 6.995;0.500;1456.000
10500.00; 6.990;0.500;1458.000
10510.00; 6.990;0.500;1459.000
10520.00; 6.990;0.500;1460.000
10530.00; 6.990;0.500;1462.000
10540.00; 7.005;0.500;1463.000
10550.00; 7.000;0.500;1464.000
10560.00; 6.995;0.500;1466.000
10570.00; 6.995;0.500;1467.000
10580.00; 7.010;0.500;1468.000
10590.00; 6.995;0.500;1470.000
10600.00; 6.995;0.500;1471.000
10610.00; 7.000;0.500;1472.000
10620.00; 7.000;0.500;1475.000
10630.00; 6.995;0.500;1476.000
10640.00; 7.000;0.500;1477.000
10650.00; 7.005;0.500;1479.000
10660.00; 7.005;0.500;1480.000
10670.00; 6.980;0.500;1481.000
10680.00; 7.000;0.500;1483.000
10690.00; 7.000;0.500;1484.000
10700.00; 7.005;0.500;1485.000
10710.00; 6.970;0.500;1487.000
10720.00; 7.005;0.500;1488.000
10730.00; 7.005;0.500;1489.000
10740.00; 7.000;0.500;1491.000
10750.00; 6.990;0.500;1492.000
10760.00; 6.995;0.500;1493.000
10770.00; 7.005;0.500;1495.000
10780.00; 6.995;0.500;1496.000
10790.00; 7.005;0.500;1497.000
10800.00; 6.995;0.500;1500.000
10810.00; 7.010;0.500;1501.000
10820.00; 7.010;0.500;1502.000
10830.00; 7.010;0.500;1504.000
10840.00; 7.010;0.500;1505.000
10850.00; 7.010;0.500;1506.000
10860.00; 7.010;0.500;1508.000
10870.00; 6.995;0.500;1509.000
10880.00; 7.005;0.500;1510.000
10890.00; 7.015;0.500;1512.000
10900.00; 7.010;0.500;1513.000
10910.00; 6.995;0.500;1514.000
10920.00; 7.015;0.500;1516.000
10930.00; 6.995;0.500;1517.000
10940.00; 6.995;0.500;1518.000
10950.00; 7.000;0.500;1520.000
10960.00; 6.995;0.500;1521.000
10970.00; 7.010;0.500;1522.000
10980.00; 7.005;0.500;1525.000
10990.00; 7.015;0.500;1526.000
11000.00; 7.010;0.500;1527.000
11010.00; 7.010;0.500;1529.000
11020.00; 7.010;0.500;1530.000
11030.00; 7.010;0.500;1531.000
11040.00; 7.010;0.500;1533.000
11050.00; 7.025;0.500;1534.000
11060.00; 7.020;0.500;1535.000
11070.00; 7.015;0.500;1537.000
11080.00; 7.010;0.500;1538.000
11090.00; 7.005;0.500;1539.000
11100.00; 6.995;0.500;1541.000
11110.00; 7.010;0.500;1542.000
11120.00; 7.005;0.500;1543.000
11130.00; 7.025;0.500;1545.000
11140.00; 7.015;0.500;1546.000
11150.00; 7.020;0.500;1547.000
11160.00; 7.015;0.500;1550.000
11170.00; 7.020;0.500;1551.000
11180.00; 7.025;0.500;1552.000
11190.00; 7.015;0.500;1554.000
11200.00; 7.005;0.500;1555.000
11210.00; 7.005;0.500;1556.000
11220.00; 7.015;0.500;1558.000
11230.00; 7.025;0.500;1559.000
11240.00; 7.010;0.500;1560.000
11250.00; 7.035;0.500;1562.000
11260.00; 7.020;0.500;1563.000
11270.00; 7.015;0.500;1564.000
11280.00; 7.025;0.500;1566.000
11290.00; 7.020;0.500;1567.000
11300.00; 7.010;0.500;1568.000
11310.00; 7.025;0.500;1570.000
11320.00; 7.015;0.500;1571.000
11330.00; 7.030;0.500;1572.000
11340.00; 7.035;0.500;1575.000
11350.00; 7.020;0.500;1576.000
11360.00; 7.025;0.500;1577.000
11370.00; 7.025;0.500;1579.000
11380.00; 7.025;0.500;1580.000
11390.00; 7.030;0.500;1581.000
11400.00; 7.035;0.500;1583.000
11410.00; 7.015;0.500;1584.000
11420.00; 7.035;0.500;1585.000
11430.00; 7.035;0.500;1587.000
11440.00; 7.025;0.500;1588.000
11450.00; 7.025;0.500;1589.000
11460.00; 7.025;0.500;1591.000
11470.00; 7.040;0.500;1592.000
11480.00; 7.035;0.500;1593.000
11490.00; 7.030;0.500;1595.000
11500.00; 7.035;0.500;1596.000
11510.00; 7.030;0.500;1597.000
11520.00; 7.040;0.500;1600.000
11530.00; 7.025;0.500;1601.000
11540.00; 7.015;0.500;1602.000
11550.00; 7.030;0.500;1604.000
11560.00; 7.020;0.500;1605.000
11570.00; 7.035;0.500;1606.000
11580.00; 7.040;0.500;1608.000
11590.00; 7.040;0.500;1609.000
11600.00; 7.035;0.500;1610.000
11610.00; 7.040;0.500;1612.000
11620.00; 7.035;0.500;1613.000
11630.00; 7.030;0.500;1614.000
11640.00; 7.030;0.500;1616.000
11650.00; 7.035;0.500;1617.000
11660.00; 7.040;0.500;1618.000
11670.00; 7.045;0.500;1620.000
11680.00; 7.045;0.500;1621.000
11690.00; 7.040;0.500;1622.000
11700.00; 7.025;0.500;1625.000
11710.00; 7.040;0.500;1626.000
11720.00; 7.050;0.500;1627.000
11730.00; 7.035;0.500;1629.000
11740.00; 7.055;0.500;1630.000
11750.00; 7.040;0.500;1631.000
11760.00; 7.050;0.500;1633.000
11770.00; 7.025;0.500;1634.000
11780.00; 7.040;0.500;1635.000
11790.00; 7.045;0.500;1637.000
11800.00; 7.050;0.500;1638.000
11810.00; 7.040;0.500;1639.000
11820.00; 7.035;0.500;1641.000
11830.00; 7.045;0.500;1642.000
11840.00; 7.045;0.500;1643.000
11850.00; 7.040;0.500;1645.000
11860.00; 7.050;0.500;1646.000
11870.00; 7.045;0.500;1647.000
11880.00; 7.050;0.500;1650.000
11890.00; 7.040;0.500;1651.000
11900.00; 7.055;0.500;1652.000
11910.00; 7.045;0.500;1654.000
11920.00; 7.050;0.500;1655.000
11930.00; 7.035;0.500;1656.000
11940.00; 7.050;0.500;1658.000
11950.00; 7.055;0.500;1659.000
11960.00; 7.065;0.500;1660.000
11970.00; 7.050;0.500;1662.000
11980.00; 7.055;0.500;1663.000
11990.00; 7.040;0.500;1664.000
12000.00; 7.040;0.500;1666.000
12010.00; 7.065;0.500;1667.000
12020.00; 7.055;0.500;1668.000
12030.00; 7.065;0.500;1670.000
12040.00; 7.060;0.500;1671.000
12050.00; 7.065;0.500;1672.000
12060.00; 7.080;0.500;1675.000
12070.00; 7.065;0.500;1676.000
12080.00; 7.065;0.500;1677.000
12090.00; 7.070;0.500;1679.000
12100.00; 7.055;0.500;1680.000
12110.00; 7.055;0.500;1681.000
12120.00; 7.050;0.500;1683.000
12130.00; 7.085;0.500;1684.000
12140.00; 7.060;0.500;1685.000
12150.00; 7.050;0.500;1687.000
12160.00; 7.065;0.500;1688.000
12170.00; 7.055;0.500;1689.000
12180.00; 7.065;0.500;1691.000
12190.00; 7.080;0.500;1692.000
12200.00; 7.055;0.500;1693.000
12210.00; 7.060;0.500;1695.000
12220.00; 7.050;0.500;1696.000
12230.00; 7.050;0.500;1697.000
12240.00; 7.050;0.500;1700.000
12250.00; 7.065;0.500;1701.000
12260.00; 7.085;0.500;1702.000
12270.00; 7.055;0.500;1704.000
12280.00; 7.065;0.500;1705.000
12290.00; 7.070;0.500;1706.000
12300.00; 7.080;0.500;1708.000
12310.00; 7.080;0.500;1709.000
12320.00; 7.075;0.500;1710.000
12330.00; 7.070;0.500;1712.000
12340.00; 7.065;0.500;1713.000
12350.00; 7.065;0.500;1714.000
12360.00; 7.055;0.500;1716.000
12370.00; 7.070;0.500;1717.000
12380.00; 7.055;0.500;1718.000
12390.00; 7.070;0.500;1720.000
12400.00; 7.085;0.500;1721.000
12410.00; 7.080;0.500;1722.000
12420.00; 7.070;0.500;1725.000
12430.00; 7.095;0.500;1726.000
12440.00; 7.070;0.500;1727.000
12450.00; 7.080;0.500;1729.000
12460.00; 7.065;0.500;1730.000
12470.00; 7.085;0.500;1731.000
12480.00; 7.080;0.500;1733.000
12490.00; 7.075;0.500;1734.000
12500.00; 7.085;0.500;1735.000
12510.00; 7.080;0.500;1737.000
12520.00; 7.085;0.500;1738.000
12530.00; 7.095;0.500;1739.000
12540.00; 7.100;0.500;1741.000
12550.00; 7.065;0.500;1742.000
12560.00; 7.090;0.500;1743.000
12570.00; 7.070;0.500;1745.000
12580.00; 7.100;0.500;1746.000
12590.00; 7.085;0.500;1747.000
12600.00; 7.095;0.500;1750.000
12610.00; 7.090;0.500;1751.000
12620.00; 7.095;0.500;1752.000
12630.00; 7.095;0.500;1754.000
12640.00; 7.100;0.500;1755.000
12650.00; 7.080;0.500;1756.000
12660.00; 7.095;0.500;1758.000
12670.00; 7.100;0.500;1759.000
12680.00; 7.090;0.500;1760.000
12690.00; 7.090;0.500;1762.000
12700.00; 7.090;0.500;1763.000
12710.00; 7.100;0.500;1764.000
12720.00; 7.100;0.500;1766.000
12730.00; 7.100;0.500;1767.000
12740.00; 7.085;0.500;1768.000
12750.00; 7.095;0.500;1770.000
12760.00; 7.110;0.500;1771.000
12770.00; 7.105;0.500;1772.000
12780.00; 7.100;0.500;1775.000
12790.00; 7.095;0.500;1776.000
12800.00; 7.095;0.500;1777.000
12810.00; 7.095;0.500;1779.000
12820.00; 7.100;0.500;1780.000
12830.00; 7.105;0.500;1781.000
12840.00; 7.115;0.500;1783.000
12850.00; 7.100;0.500;1784.000
12860.00; 7.110;0.500;1785.000
12870.00; 7.115;0.500;1787.000
12880.00; 7.115;0.500;1788.000
12890.00; 7.100;0.500;1789.000
12900.00; 7.105;0.500;1791.000
12910.00; 7.110;0.500;1792.000
12920.00; 7.105;0.500;1793.000
12930.00; 7.110;0.500;1795.000
12940.00; 7.115;0.500;1796.000
12950.00; 7.120;0.500;1797.000
12960.00; 7.115;0.500;1800.000
12970.00; 7.115;0.500;1801.000
12980.00; 7.125;0.500;1802.000
12990.00; 7.125;0.500;1804.000
13000.00; 7.120;0.500;1805.000
13010.00; 7.115;0.500;1806.000
13020.00; 7.115;0.500;1808.000
13030.00; 7.135;0.500;1809.000
13040.00; 7.115;0.500;1810.000
13050.00; 7.125;0.500;1812.000
13060.00; 7.125;0.500;1813.000
13070.00; 7.110;0.500;1814.000
13080.00; 7.130;0.500;1816.000
13090.00; 7.145;0.500;1817.000
13100.00; 7.130;0.500;1818.000
13110.00; 7.130;0.500;1820.000
13120.00; 7.140;0.500;1821.000
13130.00; 7.140;0.500;1822.000
13140.00; 7.130;0.500;1825.000
13150.00; 7.140;0.500;1826.000
13160.00; 7.145;0.500;1827.000
13170.00; 7.140;0.500;1829.000
13180.00; 7.130;0.500;1830.000
13190.00; 7.130;0.500;1831.000
13200.00; 7.130;0.500;1833.000
13210.00; 7.145;0.500;1834.000
13220.00; 7.145;0.500;1835.000
13230.00; 7.130;0.500;1837.000
13240.00; 7.145;0.500;1838.000
13250.00; 7.145;0.500;1839.000
13260.00; 7.155;0.500;1841.000
13270.00; 7.150;0.500;1842.000
13280.00; 7.145;0.500;1843.000
13290.00; 7.150;0.500;1845.000
13300.00; 7.150;0.500;1846.000
13310.00; 7.150;0.500;1847.000
13320.00; 7.140;0.500;1850.000
13330.00; 7.155;0.500;1851.000
13340.00; 7.150;0.500;1852.000
13350.00; 7.155;0.500;1854.000
13360.00; 7.165;0.500;1855.000
13370.00; 7.160;0.500;1856.000
13380.00; 7.175;0.500;1858.000
13390.00; 7.175;0.500;1859.000
13400.00; 7.160;0.500;1860.000
13410.00; 7.170;0.500;1862.000
13420.00; 7.170;0.500;1863.000
13430.00; 7.175;0.500;1864.000
13440.00; 7.165;0.500;1866.000
13450.00; 7.175;0.500;1867.000
13460.00; 7.170;0.500;1868.000
13470.00; 7.175;0.500;1870.000
13480.00; 7.190;0.500;1871.000
13490.00; 7.175;0.500;1872.000
13500.00; 7.175;0.500;1875.000
13510.00; 7.175;0.500;1876.000
13520.00; 7.180;0.500;1877.000
13530.00; 7.195;0.500;1879.000
13540.00; 7.190;0.500;1880.000
13550.00; 7.185;0.500;1881.000
13560.00; 7.200;0.500;1883.000
13570.00; 7.180;0.500;1884.000
13580.00; 7.190;0.500;1885.000
13590.00; 7.200;0.500;1887.000
13600.00; 7.190;0.500;1888.000
13610.00; 7.180;0.500;1889.000
13620.00; 7.210;0.500;1891.000
13630.00; 7.190;0.500;1892.000
13640.00; 7.205;0.500;1893.000
13650.00; 7.195;0.500;1895.000
13660.00; 7.200;0.500;1896.000
13670.00; 7.205;0.500;1897.000
13680.00; 7.205;0.500;1899.000
13690.00; 7.215;0.500;1901.000
13700.00; 7.215;0.500;1902.000
13710.00; 7.210;0.500;1904.000
13720.00; 7.215;0.500;1905.000
13730.00; 7.230;0.500;1906.000
13740.00; 7.220;0.500;1908.000
13750.00; 7.205;0.500;1909.000
13760.00; 7.220;0.500;1910.000
13770.00; 7.185;0.500;1912.000
13780.00; 7.220;0.500;1913.000
13790.00; 7.230;0.500;1914.000
13800.00; 7.230;0.500;1916.000
13810.00; 7.230;0.500;1917.000
13820.00; 7.230;0.500;1918.000
13830.00; 7.235;0.500;1920.000
13840.00; 7.235;0.500;1921.000
13850.00; 7.230;0.500;1922.000
13860.00; 7.230;0.500;1924.000
13870.00; 7.245;0.500;1926.000
13880.00; 7.245;0.500;1927.000
13890.00; 7.250;0.500;1929.000
13900.00; 7.260;0.500;1930.000
13910.00; 7.260;0.500;1931.000
13920.00; 7.235;0.500;1933.000
13930.00; 7.245;0.500;1934.000
13940.00; 7.240;0.500;1935.000
13950.00; 7.250;0.500;1937.000
13960.00; 7.265;0.500;1938.000
13970.00; 7.265;0.500;1939.000
13980.00; 7.275;0.500;1941.000
13990.00; 7.275;0.500;1942.000
14000.00; 7.265;0.500;1943.000
14010.00; 7.260;0.500;1945.000
14020.00; 7.265;0.500;1946.000
14030.00; 7.275;0.500;1947.000
14040.00; 7.275;0.500;1949.000
14050.00; 7.280;0.500;1951.000
14060.00; 7.280;0.500;1952.000
14070.00; 7.280;0.500;1954.000
14080.00; 7.285;0.500;1955.000
14090.00; 7.290;0.500;1956.000
14100.00; 7.285;0.500;1958.000
14110.00; 7.270;0.500;1959.000
14120.00; 7.290;0.500;1960.000
14130.00; 7.295;0.500;1962.000
14140.00; 7.305;0.500;1963.000
14150.00; 7.300;0.500;1964.000
14160.00; 7.295;0.500;1966.000
14170.00; 7.305;0.500;1967.000
14180.00; 7.310;0.500;1968.000
14190.00; 7.310;0.500;1970.000
14200.00; 7.305;0.500;1971.000
14210.00; 7.315;0.500;1972.000
14220.00; 7.325;0.500;1974.000
14230.00; 7.320;0.500;1976.000
14240.00; 7.325;0.500;1977.000
14250.00; 7.315;0.500;1979.000
14260.00; 7.330;0.500;1980.000
14270.00; 7.340;0.500;1981.000
14280.00; 7.325;0.500;1983.000
14290.00; 7.330;0.500;1984.000
14300.00; 7.320;0.500;1985.000
14310.00; 7.335;0.500;1987.000
14320.00; 7.340;0.500;1988.000
14330.00; 7.335;0.500;1989.000
14340.00; 7.355;0.500;1991.000
14350.00; 7.345;0.500;1992.000
14360.00; 7.350;0.500;1993.000
14370.00; 7.350;0.500;1995.000
14380.00; 7.350;0.500;1996.000
14390.00; 7.335;0.500;1997.000
14400.00; 7.355;0.500;1999.000
14410.00; 7.365;0.500;2001.000
14420.00; 7.350;0.500;2002.000
14430.00; 7.365;0.500;2004.000
14440.00; 7.365;0.500;2005.000
14450.00; 7.370;0.500;2006.000
14460.00; 7.370;0.500;2008.000
14470.00; 7.375;0.500;2009.000
14480.00; 7.365;0.500;2010.000
14490.00; 7.370;0.500;2012.000
14500.00; 7.380;0.500;2013.000
14510.00; 7.385;0.500;2014.000
14520.00; 7.380;0.500;2016.000
14530.00; 7.385;0.500;2017.000
14540.00; 7.385;0.500;2018.000
14550.00; 7.380;0.500;2020.000
14560.00; 7.380;0.500;2021.000
14570.00; 7.375;0.500;2022.000
14580.00; 7.390;0.500;2024.000
14590.00; 7.395;0.500;2026.000
14600.00; 7.415;0.500;2027.000
14610.00; 7.400;0.500;2029.000
14620.00; 7.400;0.500;2030.000
14630.00; 7.420;0.500;2031.000
14640.00; 7.400;0.500;2033.000
14650.00; 7.415;0.500;2034.000
14660.00; 7.415;0.500;2035.000
14670.00; 7.415;0.500;2037.000
14680.00; 7.420;0.500;2038.000
14690.00; 7.400;0.500;2039.000
14700.00; 7.425;0.500;2041.000
14710.00; 7.420;0.500;2042.000
14720.00; 7.425;0.500;2043.000
14730.00; 7.430;0.500;2045.000
14740.00; 7.420;0.500;2046.000
14750.00; 7.430;0.500;2047.000
14760.00; 7.425;0.500;2049.000
14770.00; 7.430;0.500;2051.000
14780.00; 7.440;0.500;2052.000
14790.00; 7.430;0.500;2054.000
14800.00; 7.440;0.500;2055.000
14810.00; 7.445;0.500;2056.000
14820.00; 7.455;0.500;2058.000
14830.00; 7.430;0.500;2059.000
14840.00; 7.440;0.500;2060.000
14850.00; 7.445;0.500;2062.000
14860.00; 7.445;0.500;2063.000
14870.00; 7.445;0.500;2064.000
14880.00; 7.445;0.500;2066.000
14890.00; 7.435;0.500;2067.000
14900.00; 7.460;0.500;2068.000
14910.00; 7.445;0.500;2070.000
14920.00; 7.455;0.500;2071.000
14930.00; 7.455;0.500;2072.000
14940.00; 7.455;0.500;2074.000
14950.00; 7.460;0.500;2076.000
14960.00; 7.455;0.500;2077.000
14970.00; 7.465;0.500;2079.000
14980.00; 7.460;0.500;2080.000
14990.00; 7.455;0.500;2081.000
15000.00; 7.470;0.500;2083.000
15010.00; 7.465;0.500;2084.000
15020.00; 7.455;0.500;2085.000
15030.00; 7.455;0.500;2087.000
15040.00; 7.465;0.500;2088.000
15050.00; 7.475;0.500;2089.000
15060.00; 7.455;0.500;2091.000
15070.00; 7.475;0.500;2092.000
15080.00; 7.465;0.500;2093.000
15090.00; 7.475;0.500;2095.000
15100.00; 7.475;0.500;2096.000
15110.00; 7.475;0.500;2097.000
15120.00; 7.470;0.500;2099.000
15130.00; 7.470;0.500;2101.000
15140.00; 7.465;0.500;2102.000
15150.00; 7.460;0.500;2104.000
15160.00; 7.475;0.500;2105.000
15170.00; 7.485;0.500;2106.000
15180.00; 7.475;0.500;2108.000
15190.00; 7.470;0.500;2109.000
15200.00; 7.445;0.500;2110.000
15210.00; 7.460;0.500;2112.000
15220.00; 7.485;0.500;2113.000
15230.00; 7.465;0.500;2114.000
15240.00; 7.475;0.500;2116.000
15250.00; 7.485;0.500;2117.000
15260.00; 7.470;0.500;2118.000
15270.00; 7.485;0.500;2120.000
15280.00; 7.485;0.500;2121.000
15290.00; 7.470;0.500;2122.000
15300.00; 7.470;0.500;2124.000
15310.00; 7.470;0.500;2126.000
15320.00; 7.485;0.500;2127.000
15330.00; 7.475;0.500;2129.000
15340.00; 7.490;0.500;2130.000
15350.00; 7.470;0.500;2131.000
15360.00; 7.485;0.500;2133.000
15370.00; 7.485;0.500;2134.000
15380.00; 7.475;0.500;2135.000
15390.00; 7.485;0.500;2137.000
15400.00; 7.470;0.500;2138.000
15410.00; 7.485;0.500;2139.000
15420.00; 7.490;0.500;2141.000
15430.00; 7.490;0.500;2142.000
15440.00; 7.475;0.500;2143.000
15450.00; 7.485;0.500;2145.000
15460.00; 7.475;0.500;2146.000
15470.00; 7.480;0.500;2147.000
15480.00; 7.490;0.500;2149.000
15490.00; 7.475;0.500;2151.000
15500.00; 7.475;0.500;2152.000
15510.00; 7.470;0.500;2154.000
15520.00; 7.470;0.500;2155.000
15530.00; 7.470;0.500;2156.000
15540.00; 7.475;0.500;2158.000
15550.00; 7.485;0.500;2159.000
15560.00; 7.470;0.500;2160.000
15570.00; 7.475;0.500;2162.000
15580.00; 7.460;0.500;2163.000
15590.00; 7.465;0.500;2164.000
15600.00; 7.485;0.500;2166.000
15610.00; 7.470;0.500;2167.000
15620.00; 7.470;0.500;2168.000
15630.00; 7.475;0.500;2170.000
15640.00; 7.460;0.500;2171.000
15650.00; 7.460;0.500;2172.000
15660.00; 7.475;0.500;2174.000
15670.00; 7.465;0.500;2176.000
15680.00; 7.460;0.500;2177.000
15690.00; 7.475;0.500;2179.000
15700.00; 7.475;0.500;2180.000
15710.00; 7.450;0.500;2181.000
15720.00; 7.470;0.500;2183.000
15730.00; 7.470;0.500;2184.000
15740.00; 7.465;0.500;2185.000
15750.00; 7.470;0.500;2187.000
15760.00; 7.470;0.500;2188.000
15770.00; 7.460;0.500;2189.000
15780.00; 7.455;0.500;2191.000
15790.00; 7.450;0.500;2192.000
15800.00; 7.470;0.500;2193.000
15810.00; 7.460;0.500;2195.000
15820.00; 7.460;0.500;2196.000
15830.00; 7.445;0.500;2197.000
15840.00; 7.445;0.500;2199.000
15850.00; 7.460;0.500;2201.000
15860.00; 7.455;0.500;2202.000
15870.00; 7.445;0.500;2204.000
15880.00; 7.445;0.500;2205.000
15890.00; 7.450;0.500;2206.000
15900.00; 7.465;0.500;2208.000
15910.00; 7.455;0.500;2209.000
15920.00; 7.455;0.500;2210.000
15930.00; 7.440;0.500;2212.000
15940.00; 7.445;0.500;2213.000
15950.00; 7.455;0.500;2214.000
15960.00; 7.445;0.500;2216.000
15970.00; 7.445;0.500;2217.000
15980.00; 7.430;0.500;2218.000
15990.00; 7.445;0.500;2220.000
16000.00; 7.440;0.500;2221.000
16010.00; 7.440;0.500;2222.000
16020.00; 7.440;0.500;2224.000
16030.00; 7.455;0.500;2226.000
16040.00; 7.460;0.500;2227.000
16050.00; 7.440;0.500;2229.000
16060.00; 7.445;0.500;2230.000
16070.00; 7.430;0.500;2231.000
16080.00; 7.430;0.500;2233.000
16090.00; 7.415;0.500;2234.000
16100.00; 7.440;0.500;2235.000
16110.00; 7.425;0.500;2237.000
16120.00; 7.420;0.500;2238.000
16130.00; 7.435;0.500;2239.000
16140.00; 7.420;0.500;2241.000
16150.00; 7.420;0.500;2242.000
16160.00; 7.435;0.500;2243.000
16170.00; 7.415;0.500;2245.000
16180.00; 7.425;0.500;2246.000
16190.00; 7.410;0.500;2247.000
16200.00; 7.430;0.500;2249.000
16210.00; 7.410;0.500;2251.000
16220.00; 7.425;0.500;2252.000
16230.00; 7.430;0.500;2254.000
16240.00; 7.425;0.500;2255.000
16250.00; 7.430;0.500;2256.000
16260.00; 7.425;0.500;2258.000
16270.00; 7.415;0.500;2259.000
16280.00; 7.420;0.500;2260.000
16290.00; 7.390;0.500;2262.000
16300.00; 7.410;0.500;2263.000
16310.00; 7.415;0.500;2264.000
16320.00; 7.415;0.500;2266.000
16330.00; 7.410;0.500;2267.000
16340.00; 7.415;0.500;2268.000
16350.00; 7.410;0.500;2270.000
16360.00; 7.395;0.500;2271.000
16370.00; 7.400;0.500;2272.000
16380.00; 7.420;0.500;2274.000
16390.00; 7.400;0.500;2276.000
16400.00; 7.410;0.500;2277.000
16410.00; 7.385;0.500;2279.000
16420.00; 7.400;0.500;2280.000
16430.00; 7.395;0.500;2281.000
16440.00; 7.400;0.500;2283.000
16450.00; 7.395;0.500;2284.000
16460.00; 7.405;0.500;2285.000
16470.00; 7.395;0.500;2287.000
