AkkuMasterC4
Zeit [sec];Spannung [V];Strom [A];Ladung [mAh]
0.00; 6.505;0.500;6.000
10.00; 6.490;0.500;8.000
20.00; 6.495;0.500;9.000
30.00; 6.470;0.500;10.000
40.00; 6.470;0.500;11.000
50.00; 6.475;0.500;13.000
60.00; 6.460;0.500;14.000
70.00; 6.465;0.500;15.000
80.00; 6.445;0.500;16.000
90.00; 6.445;0.500;18.000
100.00; 6.425;0.500;19.000
110.00; 6.415;0.500;21.000
120.00; 6.420;0.500;22.000
130.00; 6.420;0.500;23.000
140.00; 6.395;0.500;25.000
150.00; 6.405;0.500;27.000
160.00; 6.400;0.500;28.000
170.00; 6.390;0.500;30.000
180.00; 6.390;0.500;31.000
190.00; 6.390;0.500;32.000
200.00; 6.380;0.500;33.000
210.00; 6.365;0.500;35.000
220.00; 6.375;0.500;36.000
230.00; 6.370;0.500;38.000
240.00; 6.375;0.500;39.000
250.00; 6.360;0.500;40.000
260.00; 6.365;0.500;41.000
270.00; 6.360;0.500;43.000
280.00; 6.360;0.500;44.000
290.00; 6.360;0.500;46.000
300.00; 6.365;0.500;47.000
310.00; 6.345;0.500;48.000
320.00; 6.345;0.500;50.000
330.00; 6.350;0.500;52.000
340.00; 6.330;0.500;53.000
350.00; 6.340;0.500;55.000
360.00; 6.335;0.500;56.000
370.00; 6.330;0.500;57.000
380.00; 6.330;0.500;58.000
390.00; 6.335;0.500;60.000
400.00; 6.335;0.500;61.000
410.00; 6.315;0.500;63.000
420.00; 6.325;0.500;64.000
430.00; 6.330;0.500;65.000
440.00; 6.320;0.500;66.000
450.00; 6.310;0.500;68.000
460.00; 6.320;0.500;69.000
470.00; 6.320;0.500;71.000
480.00; 6.305;0.500;72.000
490.00; 6.310;0.500;73.000
500.00; 6.305;0.500;75.000
510.00; 6.310;0.500;77.000
520.00; 6.305;0.500;78.000
530.00; 6.310;0.500;80.000
540.00; 6.305;0.500;81.000
550.00; 6.305;0.500;82.000
560.00; 6.295;0.500;83.000
570.00; 6.295;0.500;85.000
580.00; 6.300;0.500;86.000
590.00; 6.285;0.500;88.000
600.00; 6.290;0.500;89.000
610.00; 6.295;0.500;90.000
620.00; 6.290;0.500;91.000
630.00; 6.285;0.500;93.000
640.00; 6.295;0.500;94.000
650.00; 6.285;0.500;96.000
660.00; 6.270;0.500;97.000
670.00; 6.280;0.500;98.000
680.00; 6.285;0.500;100.000
690.00; 6.285;0.500;102.000
700.00; 6.275;0.500;103.000
710.00; 6.280;0.500;105.000
720.00; 6.255;0.500;106.000
730.00; 6.280;0.500;107.000
740.00; 6.275;0.500;108.000
750.00; 6.275;0.500;110.000
760.00; 6.280;0.500;111.000
770.00; 6.270;0.500;113.000
780.00; 6.270;0.500;114.000
790.00; 6.275;0.500;115.000
800.00; 6.260;0.500;116.000
810.00; 6.260;0.500;118.000
820.00; 6.275;0.500;119.000
830.00; 6.280;0.500;121.000
840.00; 6.270;0.500;122.000
850.00; 6.270;0.500;123.000
860.00; 6.270;0.500;125.000
870.00; 6.255;0.500;127.000
880.00; 6.275;0.500;128.000
890.00; 6.260;0.500;130.000
900.00; 6.260;0.500;131.000
910.00; 6.270;0.500;132.000
920.00; 6.280;0.500;133.000
930.00; 6.270;0.500;135.000
940.00; 6.260;0.500;136.000
950.00; 6.250;0.500;138.000
960.00; 6.265;0.500;139.000
970.00; 6.255;0.500;140.000
980.00; 6.240;0.500;141.000
990.00; 6.270;0.500;143.000
1000.00; 6.255;0.500;144.000
1010.00; 6.245;0.500;146.000
1020.00; 6.270;0.500;147.000
1030.00; 6.255;0.500;148.000
1040.00; 6.220;0.500;150.000
1050.00; 6.235;0.500;152.000
1060.00; 6.245;0.500;153.000
1070.00; 6.225;0.500;155.000
1080.00; 6.255;0.500;156.000
1090.00; 6.255;0.500;157.000
1100.00; 6.245;0.500;158.000
1110.00; 6.245;0.500;160.000
1120.00; 6.255;0.500;161.000
1130.00; 6.245;0.500;163.000
1140.00; 6.245;0.500;164.000
1150.00; 6.260;0.500;165.000
1160.00; 6.255;0.500;166.000
1170.00; 6.250;0.500;168.000
1180.00; 6.245;0.500;169.000
1190.00; 6.255;0.500;171.000
1200.00; 6.265;0.500;172.000
1210.00; 6.245;0.500;173.000
1220.00; 6.255;0.500;175.000
1230.00; 6.240;0.500;177.000
1240.00; 6.260;0.500;178.000
1250.00; 6.250;0.500;180.000
1260.00; 6.255;0.500;181.000
1270.00; 6.245;0.500;182.000
1280.00; 6.250;0.500;183.000
1290.00; 6.250;0.500;185.000
1300.00; 6.255;0.500;186.000
1310.00; 6.250;0.500;188.000
1320.00; 6.245;0.500;189.000
1330.00; 6.240;0.500;190.000
1340.00; 6.245;0.500;191.000
1350.00; 6.245;0.500;193.000
1360.00; 6.250;0.500;194.000
1370.00; 6.255;0.500;196.000
1380.00; 6.240;0.500;197.000
1390.00; 6.245;0.500;198.000
1400.00; 6.245;0.500;200.000
1410.00; 6.245;0.500;202.000
1420.00; 6.255;0.500;203.000
1430.00; 6.235;0.500;205.000
1440.00; 6.255;0.500;206.000
1450.00; 6.235;0.500;207.000
1460.00; 6.245;0.500;208.000
1470.00; 6.240;0.500;210.000
1480.00; 6.250;0.500;211.000
1490.00; 6.235;0.500;213.000
1500.00; 6.225;0.500;214.000
1510.00; 6.245;0.500;215.000
1520.00; 6.250;0.500;216.000
1530.00; 6.230;0.500;218.000
1540.00; 6.245;0.500;219.000
1550.00; 6.250;0.500;221.000
1560.00; 6.235;0.500;222.000
1570.00; 6.245;0.500;223.000
1580.00; 6.235;0.500;225.000
1590.00; 6.245;0.500;227.000
1600.00; 6.235;0.500;228.000
1610.00; 6.235;0.500;230.000
1620.00; 6.245;0.500;231.000
1630.00; 6.245;0.500;232.000
1640.00; 6.255;0.500;233.000
1650.00; 6.240;0.500;235.000
1660.00; 6.245;0.500;236.000
1670.00; 6.235;0.500;238.000
1680.00; 6.240;0.500;239.000
1690.00; 6.255;0.500;240.000
1700.00; 6.245;0.500;241.000
1710.00; 6.245;0.500;243.000
1720.00; 6.240;0.500;244.000
1730.00; 6.245;0.500;246.000
1740.00; 6.245;0.500;247.000
1750.00; 6.230;0.500;248.000
1760.00; 6.240;0.500;250.000
1770.00; 6.230;0.500;252.000
1780.00; 6.240;0.500;253.000
1790.00; 6.230;0.500;255.000
1800.00; 6.240;0.500;256.000
1810.00; 6.230;0.500;257.000
1820.00; 6.230;0.500;258.000
1830.00; 6.235;0.500;260.000
1840.00; 6.240;0.500;261.000
1850.00; 6.250;0.500;263.000
1860.00; 6.240;0.500;264.000
1870.00; 6.245;0.500;265.000
1880.00; 6.230;0.500;266.000
1890.00; 6.240;0.500;268.000
1900.00; 6.240;0.500;269.000
1910.00; 6.245;0.500;271.000
1920.00; 6.245;0.500;272.000
1930.00; 6.250;0.500;273.000
1940.00; 6.240;0.500;275.000
1950.00; 6.245;0.500;277.000
1960.00; 6.245;0.500;278.000
1970.00; 6.240;0.500;280.000
1980.00; 6.240;0.500;281.000
1990.00; 6.240;0.500;282.000
2000.00; 6.240;0.500;283.000
2010.00; 6.245;0.500;285.000
2020.00; 6.245;0.500;286.000
2030.00; 6.250;0.500;288.000
2040.00; 6.240;0.500;289.000
2050.00; 6.225;0.500;290.000
2060.00; 6.245;0.500;291.000
2070.00; 6.240;0.500;293.000
2080.00; 6.240;0.500;294.000
2090.00; 6.245;0.500;296.000
2100.00; 6.230;0.500;297.000
2110.00; 6.230;0.500;298.000
2120.00; 6.230;0.500;300.000
2130.00; 6.235;0.500;302.000
2140.00; 6.240;0.500;303.000
2150.00; 6.245;0.500;305.000
2160.00; 6.230;0.500;306.000
2170.00; 6.230;0.500;307.000
2180.00; 6.245;0.500;308.000
2190.00; 6.240;0.500;310.000
2200.00; 6.230;0.500;311.000
2210.00; 6.230;0.500;313.000
2220.00; 6.245;0.500;314.000
2230.00; 6.245;0.500;315.000
2240.00; 6.245;0.500;316.000
2250.00; 6.255;0.500;318.000
2260.00; 6.240;0.500;319.000
2270.00; 6.255;0.500;321.000
2280.00; 6.230;0.500;322.000
2290.00; 6.245;0.500;323.000
2300.00; 6.255;0.500;325.000
2310.00; 6.240;0.500;327.000
2320.00; 6.245;0.500;328.000
2330.00; 6.255;0.500;330.000
2340.00; 6.245;0.500;331.000
2350.00; 6.240;0.500;332.000
2360.00; 6.250;0.500;333.000
2370.00; 6.240;0.500;335.000
2380.00; 6.245;0.500;336.000
2390.00; 6.245;0.500;338.000
2400.00; 6.240;0.500;339.000
2410.00; 6.255;0.500;340.000
2420.00; 6.235;0.500;341.000
2430.00; 6.245;0.500;343.000
2440.00; 6.240;0.500;344.000
2450.00; 6.250;0.500;346.000
2460.00; 6.240;0.500;347.000
2470.00; 6.245;0.500;348.000
2480.00; 6.240;0.500;350.000
2490.00; 6.240;0.500;352.000
2500.00; 6.255;0.500;353.000
2510.00; 6.230;0.500;355.000
2520.00; 6.245;0.500;356.000
2530.00; 6.235;0.500;357.000
2540.00; 6.245;0.500;358.000
2550.00; 6.245;0.500;360.000
2560.00; 6.250;0.500;361.000
2570.00; 6.250;0.500;363.000
2580.00; 6.240;0.500;364.000
2590.00; 6.250;0.500;365.000
2600.00; 6.240;0.500;366.000
2610.00; 6.240;0.500;368.000
2620.00; 6.240;0.500;369.000
2630.00; 6.245;0.500;371.000
2640.00; 6.235;0.500;372.000
2650.00; 6.240;0.500;373.000
2660.00; 6.240;0.500;375.000
2670.00; 6.240;0.500;377.000
2680.00; 6.245;0.500;378.000
2690.00; 6.240;0.500;380.000
2700.00; 6.245;0.500;381.000
2710.00; 6.250;0.500;382.000
2720.00; 6.240;0.500;383.000
2730.00; 6.240;0.500;385.000
2740.00; 6.240;0.500;386.000
2750.00; 6.240;0.500;388.000
2760.00; 6.245;0.500;389.000
2770.00; 6.240;0.500;390.000
2780.00; 6.235;0.500;391.000
2790.00; 6.245;0.500;393.000
2800.00; 6.245;0.500;394.000
2810.00; 6.245;0.500;396.000
2820.00; 6.240;0.500;397.000
2830.00; 6.230;0.500;398.000
2840.00; 6.245;0.500;400.000
2850.00; 6.245;0.500;402.000
2860.00; 6.230;0.500;403.000
2870.00; 6.240;0.500;405.000
2880.00; 6.240;0.500;406.000
2890.00; 6.245;0.500;407.000
2900.00; 6.245;0.500;408.000
2910.00; 6.240;0.500;410.000
2920.00; 6.255;0.500;411.000
2930.00; 6.250;0.500;413.000
2940.00; 6.245;0.500;414.000
2950.00; 6.240;0.500;415.000
2960.00; 6.240;0.500;416.000
2970.00; 6.240;0.500;418.000
2980.00; 6.250;0.500;419.000
2990.00; 6.240;0.500;421.000
3000.00; 6.235;0.500;422.000
3010.00; 6.245;0.500;423.000
3020.00; 6.250;0.500;425.000
3030.00; 6.235;0.500;427.000
3040.00; 6.240;0.500;428.000
3050.00; 6.260;0.500;430.000
3060.00; 6.240;0.500;431.000
3070.00; 6.235;0.500;432.000
3080.00; 6.250;0.500;433.000
3090.00; 6.240;0.500;435.000
3100.00; 6.240;0.500;436.000
3110.00; 6.230;0.500;438.000
3120.00; 6.235;0.500;439.000
3130.00; 6.230;0.500;440.000
3140.00; 6.240;0.500;441.000
3150.00; 6.245;0.500;443.000
3160.00; 6.240;0.500;444.000
3170.00; 6.250;0.500;446.000
3180.00; 6.240;0.500;447.000
3190.00; 6.240;0.500;448.000
3200.00; 6.235;0.500;450.000
3210.00; 6.245;0.500;452.000
3220.00; 6.240;0.500;453.000
3230.00; 6.225;0.500;455.000
3240.00; 6.225;0.500;456.000
3250.00; 6.240;0.500;457.000
3260.00; 6.230;0.500;458.000
3270.00; 6.240;0.500;460.000
3280.00; 6.230;0.500;461.000
3290.00; 6.255;0.500;463.000
3300.00; 6.235;0.500;464.000
3310.00; 6.245;0.500;465.000
3320.00; 6.240;0.500;466.000
3330.00; 6.240;0.500;468.000
3340.00; 6.235;0.500;469.000
3350.00; 6.240;0.500;471.000
3360.00; 6.255;0.500;472.000
3370.00; 6.230;0.500;473.000
3380.00; 6.230;0.500;475.000
3390.00; 6.240;0.500;477.000
3400.00; 6.240;0.500;478.000
3410.00; 6.235;0.500;480.000
3420.00; 6.240;0.500;481.000
3430.00; 6.235;0.500;482.000
3440.00; 6.240;0.500;483.000
3450.00; 6.220;0.500;485.000
3460.00; 6.250;0.500;486.000
3470.00; 6.215;0.500;488.000
3480.00; 6.235;0.500;489.000
3490.00; 6.240;0.500;490.000
3500.00; 6.240;0.500;491.000
3510.00; 6.230;0.500;493.000
3520.00; 6.240;0.500;494.000
3530.00; 6.230;0.500;496.000
3540.00; 6.240;0.500;497.000
3550.00; 6.235;0.500;498.000
3560.00; 6.230;0.500;500.000
3570.00; 6.240;0.500;502.000
3580.00; 6.230;0.500;503.000
3590.00; 6.230;0.500;505.000
3600.00; 6.235;0.500;506.000
3610.00; 6.225;0.500;507.000
3620.00; 6.240;0.500;508.000
3630.00; 6.235;0.500;510.000
3640.00; 6.230;0.500;511.000
3650.00; 6.230;0.500;513.000
3660.00; 6.230;0.500;514.000
3670.00; 6.215;0.500;515.000
3680.00; 6.230;0.500;516.000
3690.00; 6.240;0.500;518.000
3700.00; 6.230;0.500;519.000
3710.00; 6.230;0.500;521.000
3720.00; 6.235;0.500;522.000
3730.00; 6.240;0.500;523.000
3740.00; 6.235;0.500;525.000
3750.00; 6.240;0.500;527.000
3760.00; 6.225;0.500;528.000
3770.00; 6.230;0.500;530.000
3780.00; 6.230;0.500;531.000
3790.00; 6.230;0.500;532.000
3800.00; 6.245;0.500;533.000
3810.00; 6.240;0.500;535.000
3820.00; 6.230;0.500;536.000
3830.00; 6.230;0.500;538.000
3840.00; 6.245;0.500;539.000
3850.00; 6.245;0.500;540.000
3860.00; 6.235;0.500;541.000
3870.00; 6.245;0.500;543.000
3880.00; 6.230;0.500;544.000
3890.00; 6.240;0.500;546.000
3900.00; 6.235;0.500;547.000
3910.00; 6.235;0.500;548.000
3920.00; 6.225;0.500;550.000
3930.00; 6.240;0.500;552.000
3940.00; 6.230;0.500;553.000
3950.00; 6.225;0.500;555.000
3960.00; 6.225;0.500;556.000
3970.00; 6.235;0.500;557.000
3980.00; 6.240;0.500;558.000
3990.00; 6.225;0.500;560.000
4000.00; 6.235;0.500;561.000
4010.00; 6.225;0.500;563.000
4020.00; 6.235;0.500;564.000
4030.00; 6.220;0.500;565.000
4040.00; 6.240;0.500;566.000
4050.00; 6.215;0.500;568.000
4060.00; 6.225;0.500;569.000
4070.00; 6.230;0.500;571.000
4080.00; 6.230;0.500;572.000
4090.00; 6.235;0.500;573.000
4100.00; 6.230;0.500;575.000
4110.00; 6.240;0.500;577.000
4120.00; 6.230;0.500;578.000
4130.00; 6.235;0.500;580.000
4140.00; 6.225;0.500;581.000
4150.00; 6.215;0.500;582.000
4160.00; 6.230;0.500;583.000
4170.00; 6.225;0.500;585.000
4180.00; 6.225;0.500;586.000
4190.00; 6.235;0.500;588.000
4200.00; 6.230;0.500;589.000
4210.00; 6.225;0.500;590.000
4220.00; 6.230;0.500;591.000
4230.00; 6.225;0.500;593.000
4240.00; 6.230;0.500;594.000
4250.00; 6.225;0.500;595.000
4260.00; 6.225;0.500;597.000
4270.00; 6.225;0.500;598.000
4280.00; 6.220;0.500;600.000
4290.00; 6.230;0.500;602.000
4300.00; 6.235;0.500;603.000
4310.00; 6.205;0.500;604.000
4320.00; 6.225;0.500;606.000
4330.00; 6.230;0.500;607.000
4340.00; 6.235;0.500;608.000
4350.00; 6.225;0.500;610.000
4360.00; 6.215;0.500;611.000
4370.00; 6.225;0.500;612.000
4380.00; 6.225;0.500;614.000
4390.00; 6.215;0.500;615.000
4400.00; 6.225;0.500;616.000
4410.00; 6.210;0.500;618.000
4420.00; 6.235;0.500;619.000
4430.00; 6.225;0.500;620.000
4440.00; 6.225;0.500;622.000
4450.00; 6.235;0.500;623.000
4460.00; 6.225;0.500;625.000
4470.00; 6.230;0.500;627.000
4480.00; 6.220;0.500;628.000
4490.00; 6.230;0.500;629.000
4500.00; 6.215;0.500;631.000
4510.00; 6.225;0.500;632.000
4520.00; 6.225;0.500;633.000
4530.00; 6.225;0.500;635.000
4540.00; 6.225;0.500;636.000
4550.00; 6.225;0.500;637.000
4560.00; 6.220;0.500;639.000
4570.00; 6.220;0.500;640.000
4580.00; 6.225;0.500;641.000
4590.00; 6.215;0.500;643.000
4600.00; 6.230;0.500;644.000
4610.00; 6.215;0.500;645.000
4620.00; 6.225;0.500;647.000
4630.00; 6.230;0.500;648.000
4640.00; 6.230;0.500;650.000
4650.00; 6.230;0.500;652.000
4660.00; 6.215;0.500;653.000
4670.00; 6.210;0.500;654.000
4680.00; 6.225;0.500;656.000
4690.00; 6.225;0.500;657.000
4700.00; 6.215;0.500;658.000
4710.00; 6.225;0.500;660.000
4720.00; 6.210;0.500;661.000
4730.00; 6.210;0.500;662.000
4740.00; 6.210;0.500;664.000
4750.00; 6.220;0.500;665.000
4760.00; 6.215;0.500;666.000
4770.00; 6.195;0.500;668.000
4780.00; 6.215;0.500;669.000
4790.00; 6.215;0.500;670.000
4800.00; 6.225;0.500;672.000
4810.00; 6.225;0.500;673.000
4820.00; 6.215;0.500;675.000
4830.00; 6.215;0.500;677.000
4840.00; 6.210;0.500;678.000
4850.00; 6.210;0.500;679.000
4860.00; 6.215;0.500;681.000
4870.00; 6.215;0.500;682.000
4880.00; 6.215;0.500;683.000
4890.00; 6.195;0.500;685.000
4900.00; 6.215;0.500;686.000
4910.00; 6.210;0.500;687.000
4920.00; 6.225;0.500;689.000
4930.00; 6.215;0.500;690.000
4940.00; 6.210;0.500;691.000
4950.00; 6.225;0.500;693.000
4960.00; 6.210;0.500;694.000
4970.00; 6.230;0.500;695.000
4980.00; 6.210;0.500;697.000
4990.00; 6.215;0.500;698.000
5000.00; 6.200;0.500;700.000
5010.00; 6.220;0.500;702.000
5020.00; 6.200;0.500;703.000
5030.00; 6.210;0.500;704.000
5040.00; 6.215;0.500;706.000
5050.00; 6.200;0.500;707.000
5060.00; 6.215;0.500;708.000
5070.00; 6.215;0.500;710.000
5080.00; 6.215;0.500;711.000
5090.00; 6.205;0.500;712.000
5100.00; 6.215;0.500;714.000
5110.00; 6.215;0.500;715.000
5120.00; 6.210;0.500;716.000
5130.00; 6.215;0.500;718.000
5140.00; 6.210;0.500;719.000
5150.00; 6.205;0.500;720.000
5160.00; 6.205;0.500;722.000
5170.00; 6.215;0.500;723.000
5180.00; 6.205;0.500;725.000
5190.00; 6.200;0.500;727.000
5200.00; 6.200;0.500;728.000
5210.00; 6.200;0.500;729.000
5220.00; 6.195;0.500;731.000
5230.00; 6.205;0.500;732.000
5240.00; 6.195;0.500;733.000
5250.00; 6.220;0.500;735.000
5260.00; 6.200;0.500;736.000
5270.00; 6.200;0.500;737.000
5280.00; 6.195;0.500;739.000
5290.00; 6.205;0.500;740.000
5300.00; 6.205;0.500;741.000
5310.00; 6.210;0.500;743.000
5320.00; 6.195;0.500;744.000
5330.00; 6.180;0.500;745.000
5340.00; 6.200;0.500;747.000
5350.00; 6.205;0.500;748.000
5360.00; 6.205;0.500;750.000
5370.00; 6.210;0.500;752.000
5380.00; 6.195;0.500;753.000
5390.00; 6.200;0.500;754.000
5400.00; 6.205;0.500;756.000
5410.00; 6.195;0.500;757.000
5420.00; 6.205;0.500;758.000
5430.00; 6.200;0.500;760.000
5440.00; 6.210;0.500;761.000
5450.00; 6.205;0.500;762.000
5460.00; 6.210;0.500;764.000
5470.00; 6.200;0.500;765.000
5480.00; 6.200;0.500;766.000
5490.00; 6.200;0.500;768.000
5500.00; 6.200;0.500;769.000
5510.00; 6.200;0.500;770.000
5520.00; 6.185;0.500;772.000
5530.00; 6.195;0.500;773.000
5540.00; 6.195;0.500;775.000
5550.00; 6.200;0.500;777.000
5560.00; 6.210;0.500;778.000
5570.00; 6.185;0.500;779.000
5580.00; 6.200;0.500;781.000
5590.00; 6.185;0.500;782.000
5600.00; 6.195;0.500;783.000
5610.00; 6.205;0.500;785.000
5620.00; 6.200;0.500;786.000
5630.00; 6.200;0.500;787.000
5640.00; 6.195;0.500;789.000
5650.00; 6.200;0.500;790.000
5660.00; 6.200;0.500;791.000
5670.00; 6.185;0.500;793.000
5680.00; 6.185;0.500;794.000
5690.00; 6.205;0.500;795.000
5700.00; 6.205;0.500;797.000
5710.00; 6.185;0.500;798.000
5720.00; 6.190;0.500;800.000
5730.00; 6.190;0.500;802.000
5740.00; 6.195;0.500;803.000
5750.00; 6.185;0.500;804.000
5760.00; 6.180;0.500;806.000
5770.00; 6.185;0.500;807.000
5780.00; 6.180;0.500;808.000
5790.00; 6.195;0.500;810.000
5800.00; 6.185;0.500;811.000
5810.00; 6.180;0.500;812.000
5820.00; 6.195;0.500;814.000
5830.00; 6.185;0.500;815.000
5840.00; 6.180;0.500;816.000
5850.00; 6.170;0.500;818.000
5860.00; 6.195;0.500;819.000
5870.00; 6.185;0.500;820.000
5880.00; 6.185;0.500;822.000
5890.00; 6.175;0.500;823.000
5900.00; 6.180;0.500;825.000
5910.00; 6.200;0.500;827.000
5920.00; 6.170;0.500;828.000
5930.00; 6.175;0.500;829.000
5940.00; 6.185;0.500;831.000
5950.00; 6.195;0.500;832.000
5960.00; 6.190;0.500;833.000
5970.00; 6.180;0.500;835.000
5980.00; 6.195;0.500;836.000
5990.00; 6.180;0.500;837.000
6000.00; 6.185;0.500;839.000
6010.00; 6.195;0.500;840.000
6020.00; 6.185;0.500;841.000
6030.00; 6.175;0.500;843.000
6040.00; 6.185;0.500;844.000
6050.00; 6.180;0.500;845.000
6060.00; 6.180;0.500;847.000
6070.00; 6.170;0.500;848.000
6080.00; 6.180;0.500;850.000
6090.00; 6.170;0.500;852.000
6100.00; 6.160;0.500;853.000
6110.00; 6.185;0.500;854.000
6120.00; 6.170;0.500;856.000
6130.00; 6.165;0.500;857.000
6140.00; 6.165;0.500;858.000
6150.00; 6.180;0.500;860.000
6160.00; 6.180;0.500;861.000
6170.00; 6.185;0.500;862.000
6180.00; 6.175;0.500;864.000
6190.00; 6.190;0.500;865.000
6200.00; 6.170;0.500;866.000
6210.00; 6.175;0.500;868.000
6220.00; 6.170;0.500;869.000
6230.00; 6.155;0.500;870.000
6240.00; 6.165;0.500;872.000
6250.00; 6.160;0.500;873.000
6260.00; 6.190;0.500;875.000
6270.00; 6.165;0.500;877.000
6280.00; 6.170;0.500;878.000
6290.00; 6.180;0.500;879.000
6300.00; 6.165;0.500;881.000
6310.00; 6.170;0.500;882.000
6320.00; 6.165;0.500;883.000
6330.00; 6.170;0.500;885.000
6340.00; 6.170;0.500;886.000
6350.00; 6.145;0.500;887.000
6360.00; 6.155;0.500;889.000
6370.00; 6.170;0.500;890.000
6380.00; 6.170;0.500;891.000
6390.00; 6.170;0.500;893.000
6400.00; 6.160;0.500;894.000
6410.00; 6.180;0.500;895.000
6420.00; 6.155;0.500;897.000
6430.00; 6.170;0.500;898.000
6440.00; 6.150;0.500;900.000
6450.00; 6.170;0.500;902.000
6460.00; 6.155;0.500;903.000
6470.00; 6.150;0.500;904.000
6480.00; 6.155;0.500;906.000
6490.00; 6.170;0.500;907.000
6500.00; 6.160;0.500;908.000
6510.00; 6.155;0.500;910.000
6520.00; 6.150;0.500;911.000
6530.00; 6.150;0.500;912.000
6540.00; 6.170;0.500;914.000
6550.00; 6.135;0.500;915.000
6560.00; 6.170;0.500;916.000
6570.00; 6.150;0.500;918.000
6580.00; 6.155;0.500;919.000
6590.00; 6.155;0.500;920.000
6600.00; 6.150;0.500;922.000
6610.00; 6.140;0.500;923.000
6620.00; 6.160;0.500;925.000
6630.00; 6.165;0.500;927.000
6640.00; 6.155;0.500;928.000
6650.00; 6.165;0.500;929.000
6660.00; 6.150;0.500;931.000
6670.00; 6.165;0.500;932.000
6680.00; 6.155;0.500;933.000
6690.00; 6.165;0.500;935.000
6700.00; 6.160;0.500;936.000
6710.00; 6.150;0.500;937.000
6720.00; 6.140;0.500;939.000
6730.00; 6.155;0.500;940.000
6740.00; 6.140;0.500;941.000
6750.00; 6.150;0.500;943.000
6760.00; 6.150;0.500;944.000
6770.00; 6.165;0.500;945.000
6780.00; 6.140;0.500;947.000
6790.00; 6.145;0.500;948.000
6800.00; 6.150;0.500;950.000
6810.00; 6.155;0.500;952.000
6820.00; 6.140;0.500;953.000
6830.00; 6.135;0.500;954.000
6840.00; 6.140;0.500;956.000
6850.00; 6.145;0.500;957.000
6860.00; 6.165;0.500;958.000
6870.00; 6.140;0.500;960.000
6880.00; 6.140;0.500;961.000
6890.00; 6.140;0.500;962.000
6900.00; 6.140;0.500;964.000
6910.00; 6.145;0.500;965.000
6920.00; 6.135;0.500;966.000
6930.00; 6.135;0.500;968.000
6940.00; 6.135;0.500;969.000
6950.00; 6.135;0.500;970.000
6960.00; 6.125;0.500;972.000
6970.00; 6.140;0.500;973.000
6980.00; 6.150;0.500;975.000
6990.00; 6.135;0.500;977.000
7000.00; 6.135;0.500;978.000
7010.00; 6.140;0.500;979.000
7020.00; 6.135;0.500;981.000
7030.00; 6.125;0.500;982.000
7040.00; 6.140;0.500;983.000
7050.00; 6.130;0.500;985.000
7060.00; 6.140;0.500;986.000
7070.00; 6.125;0.500;987.000
7080.00; 6.135;0.500;989.000
7090.00; 6.135;0.500;990.000
7100.00; 6.140;0.500;991.000
7110.00; 6.110;0.500;993.000
7120.00; 6.135;0.500;994.000
7130.00; 6.120;0.500;995.000
7140.00; 6.125;0.500;997.000
7150.00; 6.130;0.500;998.000
7160.00; 6.135;0.500;1000.000
7170.00; 6.120;0.500;1002.000
7180.00; 6.115;0.500;1003.000
7190.00; 6.115;0.500;1004.000
7200.00; 6.110;0.500;1006.000
7210.00; 6.125;0.500;1007.000
7220.00; 6.135;0.500;1008.000
7230.00; 6.120;0.500;1010.000
7240.00; 6.110;0.500;1011.000
7250.00; 6.110;0.500;1012.000
7260.00; 6.120;0.500;1014.000
7270.00; 6.115;0.500;1015.000
7280.00; 6.125;0.500;1016.000
7290.00; 6.110;0.500;1018.000
7300.00; 6.135;0.500;1019.000
7310.00; 6.120;0.500;1020.000
7320.00; 6.125;0.500;1022.000
7330.00; 6.110;0.500;1023.000
7340.00; 6.115;0.500;1025.000
7350.00; 6.105;0.500;1027.000
7360.00; 6.110;0.500;1028.000
7370.00; 6.120;0.500;1029.000
7380.00; 6.125;0.500;1031.000
7390.00; 6.110;0.500;1032.000
7400.00; 6.110;0.500;1033.000
7410.00; 6.095;0.500;1035.000
7420.00; 6.105;0.500;1036.000
7430.00; 6.115;0.500;1037.000
7440.00; 6.105;0.500;1039.000
7450.00; 6.105;0.500;1040.000
7460.00; 6.095;0.500;1041.000
7470.00; 6.105;0.500;1043.000
7480.00; 6.120;0.500;1044.000
7490.00; 6.100;0.500;1045.000
7500.00; 6.090;0.500;1047.000
7510.00; 6.105;0.500;1048.000
7520.00; 6.105;0.500;1050.000
7530.00; 6.100;0.500;1052.000
7540.00; 6.100;0.500;1053.000
7550.00; 6.110;0.500;1054.000
7560.00; 6.090;0.500;1056.000
7570.00; 6.105;0.500;1057.000
7580.00; 6.095;0.500;1058.000
7590.00; 6.095;0.500;1060.000
7600.00; 6.100;0.500;1061.000
7610.00; 6.110;0.500;1062.000
7620.00; 6.095;0.500;1064.000
7630.00; 6.080;0.500;1065.000
7640.00; 6.085;0.500;1066.000
7650.00; 6.090;0.500;1068.000
7660.00; 6.105;0.500;1069.000
7670.00; 6.100;0.500;1070.000
7680.00; 6.090;0.500;1072.000
7690.00; 6.085;0.500;1073.000
7700.00; 6.105;0.500;1075.000
7710.00; 6.085;0.500;1076.000
7720.00; 6.085;0.500;1078.000
7730.00; 6.090;0.500;1079.000
7740.00; 6.095;0.500;1081.000
7750.00; 6.090;0.500;1082.000
7760.00; 6.095;0.500;1083.000
7770.00; 6.070;0.500;1085.000
7780.00; 6.080;0.500;1086.000
7790.00; 6.080;0.500;1087.000
7800.00; 6.090;0.500;1089.000
7810.00; 6.085;0.500;1090.000
7820.00; 6.065;0.500;1091.000
7830.00; 6.070;0.500;1092.000
7840.00; 6.080;0.500;1094.000
7850.00; 6.075;0.500;1095.000
7860.00; 6.080;0.500;1097.000
7870.00; 6.070;0.500;1098.000
7880.00; 6.075;0.500;1100.000
7890.00; 6.075;0.500;1101.000
7900.00; 6.070;0.500;1103.000
7910.00; 6.090;0.500;1104.000
7920.00; 6.085;0.500;1106.000
7930.00; 6.060;0.500;1107.000
7940.00; 6.075;0.500;1108.000
7950.00; 6.065;0.500;1109.000
7960.00; 6.070;0.500;1111.000
7970.00; 6.065;0.500;1112.000
7980.00; 6.060;0.500;1114.000
7990.00; 6.060;0.500;1115.000
8000.00; 6.070;0.500;1116.000
8010.00; 6.065;0.500;1117.000
8020.00; 6.075;0.500;1119.000
8030.00; 6.060;0.500;1120.000
8040.00; 6.065;0.500;1122.000
8050.00; 6.065;0.500;1123.000
8060.00; 6.060;0.500;1125.000
8070.00; 6.075;0.500;1126.000
8080.00; 6.060;0.500;1128.000
8090.00; 6.060;0.500;1129.000
8100.00; 6.060;0.500;1131.000
8110.00; 6.065;0.500;1132.000
8120.00; 6.060;0.500;1133.000
8130.00; 6.075;0.500;1134.000
8140.00; 6.060;0.500;1136.000
8150.00; 6.050;0.500;1137.000
8160.00; 6.060;0.500;1139.000
8170.00; 6.060;0.500;1140.000
8180.00; 6.050;0.500;1141.000
8190.00; 6.050;0.500;1142.000
8200.00; 6.050;0.500;1144.000
8210.00; 6.055;0.500;1145.000
8220.00; 6.045;0.500;1147.000
8230.00; 6.050;0.500;1148.000
8240.00; 6.050;0.500;1150.000
8250.00; 6.045;0.500;1151.000
8260.00; 6.045;0.500;1153.000
8270.00; 6.045;0.500;1154.000
8280.00; 6.030;0.500;1156.000
8290.00; 6.045;0.500;1157.000
8300.00; 6.045;0.500;1158.000
8310.00; 6.060;0.500;1159.000
8320.00; 6.030;0.500;1161.000
8330.00; 6.060;0.500;1162.000
8340.00; 6.050;0.500;1164.000
8350.00; 6.035;0.500;1165.000
8360.00; 6.035;0.500;1166.000
8370.00; 6.030;0.500;1167.000
8380.00; 6.035;0.500;1169.000
8390.00; 6.040;0.500;1170.000
8400.00; 6.045;0.500;1172.000
8410.00; 6.030;0.500;1173.000
8420.00; 6.030;0.500;1175.000
8430.00; 6.040;0.500;1176.000
8440.00; 6.030;0.500;1178.000
8450.00; 6.025;0.500;1179.000
8460.00; 6.025;0.500;1181.000
8470.00; 6.020;0.500;1182.000
8480.00; 6.040;0.500;1183.000
8490.00; 6.035;0.500;1184.000
8500.00; 6.020;0.500;1186.000
8510.00; 6.030;0.500;1187.000
8520.00; 6.035;0.500;1189.000
8530.00; 6.020;0.500;1190.000
8540.00; 6.025;0.500;1191.000
8550.00; 6.015;0.500;1192.000
8560.00; 6.015;0.500;1194.000
8570.00; 6.035;0.500;1195.000
8580.00; 6.020;0.500;1197.000
8590.00; 6.005;0.500;1198.000
8600.00; 6.005;0.500;1200.000
8610.00; 6.015;0.500;1201.000
8620.00; 6.015;0.500;1203.000
8630.00; 6.035;0.500;1204.000
8640.00; 6.015;0.500;1206.000
8650.00; 6.000;0.500;1207.000
8660.00; 6.020;0.500;1208.000
8670.00; 6.000;0.500;1209.000
8680.00; 6.000;0.500;1211.000
8690.00; 6.015;0.500;1212.000
8700.00; 6.020;0.500;1214.000
8710.00; 6.015;0.500;1215.000
8720.00; 6.015;0.500;1216.000
8730.00; 6.020;0.500;1217.000
8740.00; 6.005;0.500;1219.000
8750.00; 6.010;0.500;1220.000
8760.00; 6.010;0.500;1222.000
8770.00; 6.000;0.500;1223.000
8780.00; 5.995;0.500;1225.000
8790.00; 6.005;0.500;1226.000
8800.00; 6.005;0.500;1228.000
8810.00; 6.000;0.500;1229.000
8820.00; 6.010;0.500;1231.000
8830.00; 6.000;0.500;1232.000
8840.00; 5.990;0.500;1233.000
8850.00; 6.005;0.500;1234.000
8860.00; 5.990;0.500;1236.000
8870.00; 5.980;0.500;1237.000
8880.00; 5.995;0.500;1239.000
8890.00; 5.985;0.500;1240.000
8900.00; 5.975;0.500;1241.000
8910.00; 5.985;0.500;1242.000
8920.00; 5.985;0.500;1244.000
8930.00; 5.985;0.500;1245.000
8940.00; 5.985;0.500;1247.000
8950.00; 6.005;0.500;1248.000
8960.00; 5.965;0.500;1250.000
8970.00; 5.985;0.500;1251.000
8980.00; 5.970;0.500;1253.000
8990.00; 5.980;0.500;1254.000
9000.00; 5.975;0.500;1256.000
9010.00; 5.985;0.500;1257.000
9020.00; 5.990;0.500;1258.000
9030.00; 5.975;0.500;1259.000
9040.00; 5.985;0.500;1261.000
9050.00; 5.960;0.500;1262.000
9060.00; 5.975;0.500;1264.000
9070.00; 5.975;0.500;1265.000
9080.00; 5.970;0.500;1266.000
9090.00; 5.975;0.500;1267.000
9100.00; 5.975;0.500;1269.000
9110.00; 5.955;0.500;1270.000
9120.00; 5.955;0.500;1272.000
9130.00; 5.980;0.500;1273.000
9140.00; 5.970;0.500;1275.000
9150.00; 5.965;0.500;1276.000
9160.00; 5.975;0.500;1278.000
9170.00; 5.975;0.500;1279.000
9180.00; 5.965;0.500;1281.000
9190.00; 5.960;0.500;1282.000
9200.00; 5.970;0.500;1283.000
9210.00; 5.955;0.500;1284.000
9220.00; 5.955;0.500;1286.000
9230.00; 5.960;0.500;1287.000
9240.00; 5.945;0.500;1289.000
9250.00; 5.940;0.500;1290.000
9260.00; 5.940;0.500;1291.000
9270.00; 5.955;0.500;1292.000
9280.00; 5.955;0.500;1294.000
9290.00; 5.945;0.500;1295.000
9300.00; 5.950;0.500;1297.000
9310.00; 5.945;0.500;1298.000
9320.00; 5.945;0.500;1300.000
9330.00; 5.940;0.500;1301.000
9340.00; 5.945;0.500;1303.000
9350.00; 5.935;0.500;1304.000
9360.00; 5.930;0.500;1306.000
9370.00; 5.955;0.500;1307.000
9380.00; 5.945;0.500;1308.000
9390.00; 5.950;0.500;1309.000
9400.00; 5.935;0.500;1311.000
9410.00; 5.930;0.500;1312.000
9420.00; 5.940;0.500;1314.000
9430.00; 5.930;0.500;1315.000
9440.00; 5.925;0.500;1316.000
9450.00; 5.940;0.500;1317.000
9460.00; 5.940;0.500;1319.000
9470.00; 5.945;0.500;1320.000
9480.00; 5.935;0.500;1322.000
9490.00; 5.920;0.500;1323.000
9500.00; 5.945;0.500;1325.000
9510.00; 5.915;0.500;1326.000
9520.00; 5.930;0.500;1328.000
9530.00; 5.930;0.500;1329.000
9540.00; 5.910;0.500;1331.000
9550.00; 5.925;0.500;1332.000
9560.00; 5.915;0.500;1333.000
9570.00; 5.925;0.500;1334.000
9580.00; 5.920;0.500;1336.000
9590.00; 5.905;0.500;1337.000
9600.00; 5.915;0.500;1339.000
9610.00; 5.905;0.500;1340.000
9620.00; 5.910;0.500;1341.000
9630.00; 5.910;0.500;1342.000
9640.00; 5.910;0.500;1344.000
9650.00; 5.905;0.500;1345.000
9660.00; 5.920;0.500;1347.000
9670.00; 5.925;0.500;1348.000
9680.00; 5.900;0.500;1350.000
9690.00; 5.895;0.500;1351.000
9700.00; 5.900;0.500;1353.000
9710.00; 5.890;0.500;1354.000
9720.00; 5.890;0.500;1356.000
9730.00; 5.895;0.500;1357.000
9740.00; 5.880;0.500;1358.000
9750.00; 5.900;0.500;1359.000
9760.00; 5.890;0.500;1361.000
9770.00; 5.880;0.500;1362.000
9780.00; 5.880;0.500;1364.000
9790.00; 5.895;0.500;1365.000
9800.00; 5.875;0.500;1366.000
9810.00; 5.875;0.500;1367.000
9820.00; 5.880;0.500;1369.000
9830.00; 5.890;0.500;1370.000
9840.00; 5.875;0.500;1372.000
9850.00; 5.885;0.500;1373.000
9860.00; 5.870;0.500;1375.000
9870.00; 5.875;0.500;1376.000
9880.00; 5.860;0.500;1378.000
9890.00; 5.865;0.500;1379.000
9900.00; 5.865;0.500;1381.000
9910.00; 5.850;0.500;1382.000
9920.00; 5.865;0.500;1383.000
9930.00; 5.865;0.500;1384.000
9940.00; 5.870;0.500;1386.000
9950.00; 5.875;0.500;1387.000
9960.00; 5.855;0.500;1389.000
9970.00; 5.845;0.500;1390.000
9980.00; 5.855;0.500;1391.000
9990.00; 5.860;0.500;1392.000
10000.00; 5.840;0.500;1394.000
10010.00; 5.860;0.500;1395.000
10020.00; 5.845;0.500;1397.000
10030.00; 5.845;0.500;1398.000
10040.00; 5.835;0.500;1400.000
10050.00; 5.840;0.500;1401.000
10060.00; 5.835;0.500;1403.000
10070.00; 5.835;0.500;1404.000
10080.00; 5.845;0.500;1406.000
10090.00; 5.835;0.500;1407.000
10100.00; 5.840;0.500;1408.000
10110.00; 5.825;0.500;1409.000
10120.00; 5.825;0.500;1411.000
10130.00; 5.845;0.500;1412.000
10140.00; 5.825;0.500;1414.000
10150.00; 5.830;0.500;1415.000
10160.00; 5.830;0.500;1416.000
10170.00; 5.820;0.500;1417.000
10180.00; 5.825;0.500;1419.000
10190.00; 5.820;0.500;1420.000
10200.00; 5.820;0.500;1422.000
10210.00; 5.810;0.500;1423.000
10220.00; 5.825;0.500;1425.000
10230.00; 5.820;0.500;1426.000
10240.00; 5.805;0.500;1428.000
10250.00; 5.815;0.500;1429.000
10260.00; 5.800;0.500;1431.000
10270.00; 5.810;0.500;1432.000
10280.00; 5.795;0.500;1433.000
10290.00; 5.810;0.500;1434.000
10300.00; 5.795;0.500;1436.000
10310.00; 5.790;0.500;1437.000
10320.00; 5.785;0.500;1439.000
10330.00; 5.795;0.500;1440.000
10340.00; 5.780;0.500;1441.000
10350.00; 5.790;0.500;1442.000
10360.00; 5.775;0.500;1444.000
10370.00; 5.785;0.500;1445.000
10380.00; 5.785;0.500;1447.000
10390.00; 5.775;0.500;1448.000
10400.00; 5.785;0.500;1450.000
10410.00; 5.770;0.500;1451.000
10420.00; 5.755;0.500;1453.000
10430.00; 5.760;0.500;1454.000
10440.00; 5.760;0.500;1456.000
10450.00; 5.765;0.500;1457.000
10460.00; 5.780;0.500;1458.000
10470.00; 5.760;0.500;1459.000
10480.00; 5.760;0.500;1461.000
10490.00; 5.735;0.500;1462.000
10500.00; 5.740;0.500;1464.000
10510.00; 5.750;0.500;1465.000
10520.00; 5.745;0.500;1466.000
10530.00; 5.745;0.500;1467.000
10540.00; 5.745;0.500;1469.000
10550.00; 5.735;0.500;1470.000
10560.00; 5.725;0.500;1472.000
10570.00; 5.740;0.500;1473.000
10580.00; 5.730;0.500;1475.000
10590.00; 5.720;0.500;1476.000
10600.00; 5.735;0.500;1478.000
10610.00; 5.715;0.500;1479.000
10620.00; 5.715;0.500;1481.000
10630.00; 5.715;0.500;1482.000
10640.00; 5.695;0.500;1483.000
10650.00; 5.700;0.500;1484.000
10660.00; 5.705;0.500;1486.000
10670.00; 5.700;0.500;1487.000
10680.00; 5.710;0.500;1489.000
10690.00; 5.710;0.500;1490.000
10700.00; 5.700;0.500;1491.000
10710.00; 5.685;0.500;1492.000
10720.00; 5.690;0.500;1494.000
10730.00; 5.680;0.500;1495.000
10740.00; 5.680;0.500;1497.000
10750.00; 5.670;0.500;1498.000
10760.00; 5.685;0.500;1500.000
10770.00; 5.680;0.500;1501.000
10780.00; 5.685;0.500;1503.000
10790.00; 5.660;0.500;1504.000
10800.00; 5.670;0.500;1506.000
10810.00; 5.655;0.500;1507.000
10820.00; 5.650;0.500;1508.000
10830.00; 5.640;0.500;1509.000
10840.00; 5.650;0.500;1511.000
10850.00; 5.655;0.500;1512.000
10860.00; 5.645;0.500;1514.000
10870.00; 5.630;0.500;1515.000
10880.00; 5.620;0.500;1516.000
10890.00; 5.630;0.500;1517.000
10900.00; 5.615;0.500;1519.000
10910.00; 5.615;0.500;1520.000
10920.00; 5.610;0.500;1522.000
10930.00; 5.585;0.500;1523.000
10940.00; 5.615;0.500;1525.000
10950.00; 5.600;0.500;1526.000
10960.00; 5.590;0.500;1528.000
10970.00; 5.600;0.500;1529.000
10980.00; 5.590;0.500;1531.000
10990.00; 5.565;0.500;1532.000
11000.00; 5.575;0.500;1533.000
11010.00; 5.585;0.500;1534.000
11020.00; 5.565;0.500;1536.000
11030.00; 5.560;0.500;1537.000
11040.00; 5.565;0.500;1539.000
11050.00; 5.550;0.500;1540.000
11060.00; 5.535;0.500;1541.000
11070.00; 5.550;0.500;1542.000
11080.00; 5.525;0.500;1544.000
11090.00; 5.540;0.500;1545.000
11100.00; 5.525;0.500;1547.000
11110.00; 5.525;0.500;1548.000
11120.00; 5.530;0.500;1550.000
11130.00; 5.530;0.500;1551.000
11140.00; 5.490;0.500;1553.000
11150.00; 5.490;0.500;1554.000
11160.00; 5.495;0.500;1555.000
11170.00; 5.495;0.500;1557.000
11180.00; 5.490;0.500;1558.000
11190.00; 5.470;0.500;1559.000
11200.00; 5.455;0.500;1561.000
11210.00; 5.460;0.500;1562.000
11220.00; 5.465;0.500;1564.000
11230.00; 5.445;0.500;1565.000
11240.00; 5.445;0.500;1566.000
11250.00; 5.435;0.500;1567.000
11260.00; 5.435;0.500;1569.000
11270.00; 5.440;0.500;1570.000
11280.00; 5.440;0.500;1571.000
11290.00; 5.415;0.500;1573.000
11300.00; 5.420;0.500;1575.000
11310.00; 5.410;0.500;1576.000
11320.00; 5.395;0.500;1578.000
11330.00; 5.385;0.500;1579.000
11340.00; 5.375;0.500;1580.000
11350.00; 5.375;0.500;1582.000
11360.00; 5.355;0.500;1583.000
11370.00; 5.365;0.500;1584.000
11380.00; 5.335;0.500;1586.000
11390.00; 5.340;0.500;1587.000
11400.00; 5.340;0.500;1588.000
11410.00; 5.325;0.500;1590.000
11420.00; 5.315;0.500;1591.000
11430.00; 5.300;0.500;1592.000
11440.00; 5.315;0.500;1594.000
11450.00; 5.285;0.500;1595.000
11460.00; 5.280;0.500;1596.000
11470.00; 5.265;0.500;1598.000
11480.00; 5.265;0.500;1600.000
11490.00; 5.250;0.500;1601.000
11500.00; 5.240;0.500;1603.000
11510.00; 5.235;0.500;1604.000
11520.00; 5.210;0.500;1605.000
11530.00; 5.205;0.500;1607.000
11540.00; 5.200;0.500;1608.000
11550.00; 5.190;0.500;1609.000
11560.00; 5.180;0.500;1611.000
11570.00; 5.150;0.500;1612.000
11580.00; 5.135;0.500;1613.000
11590.00; 5.135;0.500;1615.000
11600.00; 5.115;0.500;1616.000
11610.00; 5.105;0.500;1617.000
11620.00; 5.085;0.500;1619.000
11630.00; 5.075;0.500;1620.000
11640.00; 5.050;0.500;1621.000
11650.00; 5.040;0.500;1623.000
11660.00; 5.040;0.500;1625.000
11670.00; 4.995;0.500;1626.000
11680.00; 5.000;0.500;1628.000
11690.00; 4.980;0.500;1629.000
11700.00; 4.955;0.500;1630.000
11710.00; 4.935;0.500;1632.000
11720.00; 4.930;0.500;1633.000
11730.00; 4.910;0.500;1634.000
11740.00; 4.895;0.500;1636.000
11750.00; 4.865;0.500;1637.000
11760.00; 4.845;0.500;1638.000
11770.00; 4.835;0.500;1640.000
11780.00; 4.800;0.500;1641.000
11790.00; 4.785;0.500;1642.000
11800.00; 4.755;0.500;1644.000
11810.00; 4.730;0.500;1645.000
11820.00; 4.710;0.500;1646.000
11830.00; 4.690;0.500;1648.000
11840.00; 4.665;0.500;1650.000
11850.00; 4.645;0.500;1651.000
11860.00; 4.615;0.500;1653.000
11870.00; 4.595;0.500;1654.000
11880.00; 4.585;0.500;1655.000
11890.00; 4.550;0.500;1657.000
11900.00; 4.520;0.500;1658.000
11910.00; 4.505;0.500;1659.000
11920.00; 4.475;0.500;1661.000
11930.00; 4.435;0.500;1662.000
11940.00; 4.440;0.500;1663.000
11950.00; 4.425;0.500;1665.000
11960.00; 4.400;0.500;1666.000
11970.00; 4.370;0.500;1667.000
11980.00; 4.350;0.500;1669.000
11990.00; 4.325;0.500;1670.000
12000.00; 4.300;0.500;1671.000
12010.00; 4.275;0.500;1673.000
12020.00; 4.255;0.500;1675.000
12030.00; 4.220;0.500;1676.000
12040.00; 4.205;0.500;1678.000
12050.00; 4.160;0.500;1679.000
12060.00; 4.115;0.500;1680.000
12070.00; 4.075;0.500;1682.000
12080.00; 4.015;0.500;1683.000
