AkkuMasterC4
Zeit [sec];Spannung [V];Strom [A];Ladung [mAh]
0.00; 4.960;0.433;1.000
10.00; 4.945;0.433;2.000
20.00; 4.925;0.433;3.000
30.00; 4.930;0.433;5.000
40.00; 4.920;0.433;6.000
50.00; 4.905;0.433;7.000
60.00; 4.905;0.433;8.000
70.00; 4.885;0.433;9.000
80.00; 4.890;0.433;10.000
90.00; 4.870;0.433;12.000
100.00; 4.875;0.433;13.000
110.00; 4.855;0.433;14.000
120.00; 4.850;0.433;15.000
130.00; 4.855;0.433;16.000
140.00; 4.865;0.433;17.000
150.00; 4.850;0.433;19.000
160.00; 4.835;0.433;20.000
170.00; 4.840;0.433;21.000
180.00; 4.820;0.433;22.000
190.00; 4.835;0.433;23.000
200.00; 4.820;0.433;24.000
210.00; 4.820;0.433;26.000
220.00; 4.825;0.433;27.000
230.00; 4.815;0.433;28.000
240.00; 4.825;0.433;29.000
250.00; 4.820;0.433;30.000
260.00; 4.805;0.433;31.000
270.00; 4.805;0.433;33.000
280.00; 4.810;0.433;34.000
290.00; 4.800;0.433;36.000
300.00; 4.800;0.433;37.000
310.00; 4.790;0.433;38.000
320.00; 4.805;0.433;39.000
330.00; 4.795;0.433;41.000
340.00; 4.795;0.433;42.000
350.00; 4.800;0.433;43.000
360.00; 4.790;0.433;44.000
370.00; 4.800;0.433;45.000
380.00; 4.800;0.433;46.000
390.00; 4.790;0.433;48.000
400.00; 4.780;0.433;49.000
410.00; 4.790;0.433;50.000
420.00; 4.775;0.433;51.000
430.00; 4.790;0.433;52.000
440.00; 4.790;0.433;53.000
450.00; 4.790;0.433;55.000
460.00; 4.785;0.433;56.000
470.00; 4.790;0.433;57.000
480.00; 4.785;0.433;58.000
490.00; 4.795;0.433;59.000
500.00; 4.785;0.433;60.000
510.00; 4.790;0.433;62.000
520.00; 4.775;0.433;63.000
530.00; 4.760;0.433;64.000
540.00; 4.770;0.433;65.000
550.00; 4.775;0.433;66.000
560.00; 4.775;0.433;67.000
570.00; 4.790;0.433;69.000
580.00; 4.790;0.433;70.000
590.00; 4.785;0.433;72.000
600.00; 4.775;0.433;73.000
610.00; 4.780;0.433;74.000
620.00; 4.770;0.433;75.000
630.00; 4.770;0.433;77.000
640.00; 4.785;0.433;78.000
650.00; 4.770;0.433;79.000
660.00; 4.775;0.433;80.000
670.00; 4.775;0.433;81.000
680.00; 4.770;0.433;82.000
690.00; 4.780;0.433;84.000
700.00; 4.770;0.433;85.000
710.00; 4.770;0.433;86.000
720.00; 4.775;0.433;87.000
730.00; 4.775;0.433;88.000
740.00; 4.770;0.433;89.000
750.00; 4.770;0.433;91.000
760.00; 4.770;0.433;92.000
770.00; 4.770;0.433;93.000
780.00; 4.760;0.433;94.000
790.00; 4.760;0.433;95.000
800.00; 4.765;0.433;96.000
810.00; 4.760;0.433;98.000
820.00; 4.765;0.433;99.000
830.00; 4.770;0.433;100.000
840.00; 4.760;0.433;101.000
850.00; 4.760;0.433;102.000
860.00; 4.760;0.433;103.000
870.00; 4.770;0.433;105.000
880.00; 4.770;0.433;106.000
890.00; 4.765;0.433;108.000
900.00; 4.770;0.433;109.000
910.00; 4.760;0.433;110.000
920.00; 4.760;0.433;111.000
930.00; 4.765;0.433;113.000
940.00; 4.755;0.433;114.000
950.00; 4.745;0.433;115.000
960.00; 4.760;0.433;116.000
970.00; 4.750;0.433;117.000
980.00; 4.760;0.433;118.000
990.00; 4.755;0.433;120.000
1000.00; 4.755;0.433;121.000
1010.00; 4.755;0.433;122.000
1020.00; 4.755;0.433;123.000
1030.00; 4.765;0.433;124.000
1040.00; 4.760;0.433;125.000
1050.00; 4.755;0.433;127.000
1060.00; 4.760;0.433;128.000
1070.00; 4.755;0.433;129.000
1080.00; 4.755;0.433;130.000
1090.00; 4.740;0.433;131.000
1100.00; 4.740;0.433;132.000
1110.00; 4.740;0.433;134.000
1120.00; 4.755;0.433;135.000
1130.00; 4.755;0.433;136.000
1140.00; 4.740;0.433;137.000
1150.00; 4.740;0.433;138.000
1160.00; 4.755;0.433;139.000
1170.00; 4.755;0.433;141.000
1180.00; 4.755;0.433;142.000
1190.00; 4.760;0.433;144.000
1200.00; 4.755;0.433;145.000
1210.00; 4.735;0.433;146.000
1220.00; 4.745;0.433;147.000
1230.00; 4.745;0.433;149.000
1240.00; 4.740;0.433;150.000
1250.00; 4.745;0.433;151.000
1260.00; 4.735;0.433;152.000
1270.00; 4.750;0.433;153.000
1280.00; 4.740;0.433;154.000
1290.00; 4.740;0.433;156.000
1300.00; 4.730;0.433;157.000
1310.00; 4.750;0.433;158.000
1320.00; 4.740;0.433;159.000
1330.00; 4.740;0.433;160.000
1340.00; 4.730;0.433;161.000
1350.00; 4.730;0.433;163.000
1360.00; 4.730;0.433;164.000
1370.00; 4.740;0.433;165.000
1380.00; 4.730;0.433;166.000
1390.00; 4.730;0.433;167.000
1400.00; 4.730;0.433;168.000
1410.00; 4.730;0.433;170.000
1420.00; 4.735;0.433;171.000
1430.00; 4.725;0.433;172.000
1440.00; 4.740;0.433;173.000
1450.00; 4.740;0.433;174.000
1460.00; 4.735;0.433;175.000
1470.00; 4.725;0.433;177.000
1480.00; 4.725;0.433;178.000
1490.00; 4.725;0.433;180.000
1500.00; 4.730;0.433;181.000
1510.00; 4.725;0.433;182.000
1520.00; 4.740;0.433;183.000
1530.00; 4.720;0.433;185.000
1540.00; 4.725;0.433;186.000
1550.00; 4.730;0.433;187.000
1560.00; 4.720;0.433;188.000
1570.00; 4.710;0.433;189.000
1580.00; 4.730;0.433;190.000
1590.00; 4.720;0.433;192.000
1600.00; 4.730;0.433;193.000
1610.00; 4.715;0.433;194.000
1620.00; 4.715;0.433;195.000
1630.00; 4.720;0.433;196.000
1640.00; 4.705;0.433;197.000
1650.00; 4.715;0.433;199.000
1660.00; 4.715;0.433;200.000
1670.00; 4.715;0.433;201.000
1680.00; 4.715;0.433;202.000
1690.00; 4.725;0.433;203.000
1700.00; 4.705;0.433;204.000
1710.00; 4.715;0.433;206.000
1720.00; 4.715;0.433;207.000
1730.00; 4.710;0.433;208.000
1740.00; 4.720;0.433;209.000
1750.00; 4.710;0.433;210.000
1760.00; 4.715;0.433;211.000
1770.00; 4.700;0.433;213.000
1780.00; 4.715;0.433;214.000
1790.00; 4.715;0.433;216.000
1800.00; 4.705;0.433;217.000
1810.00; 4.700;0.433;218.000
1820.00; 4.700;0.433;219.000
1830.00; 4.700;0.433;221.000
1840.00; 4.700;0.433;222.000
1850.00; 4.705;0.433;223.000
1860.00; 4.705;0.433;224.000
1870.00; 4.700;0.433;225.000
1880.00; 4.705;0.433;226.000
1890.00; 4.695;0.433;228.000
1900.00; 4.700;0.433;229.000
1910.00; 4.690;0.433;230.000
1920.00; 4.695;0.433;231.000
1930.00; 4.690;0.433;232.000
1940.00; 4.695;0.433;233.000
1950.00; 4.700;0.433;235.000
1960.00; 4.700;0.433;236.000
1970.00; 4.695;0.433;237.000
1980.00; 4.695;0.433;238.000
1990.00; 4.690;0.433;239.000
2000.00; 4.690;0.433;240.000
2010.00; 4.680;0.433;242.000
2020.00; 4.690;0.433;243.000
2030.00; 4.695;0.433;244.000
2040.00; 4.685;0.433;245.000
2050.00; 4.670;0.433;246.000
2060.00; 4.695;0.433;247.000
2070.00; 4.680;0.433;249.000
2080.00; 4.685;0.433;250.000
2090.00; 4.685;0.433;252.000
2100.00; 4.680;0.433;253.000
2110.00; 4.685;0.433;254.000
2120.00; 4.680;0.433;255.000
2130.00; 4.695;0.433;257.000
2140.00; 4.685;0.433;258.000
2150.00; 4.685;0.433;259.000
2160.00; 4.670;0.433;260.000
2170.00; 4.675;0.433;261.000
2180.00; 4.680;0.433;262.000
2190.00; 4.665;0.433;264.000
2200.00; 4.670;0.433;265.000
2210.00; 4.665;0.433;266.000
2220.00; 4.660;0.433;267.000
2230.00; 4.670;0.433;268.000
2240.00; 4.680;0.433;269.000
2250.00; 4.665;0.433;271.000
2260.00; 4.665;0.433;272.000
2270.00; 4.665;0.433;273.000
2280.00; 4.665;0.433;274.000
2290.00; 4.665;0.433;275.000
2300.00; 4.670;0.433;276.000
2310.00; 4.670;0.433;278.000
2320.00; 4.665;0.433;279.000
2330.00; 4.670;0.433;280.000
2340.00; 4.665;0.433;281.000
2350.00; 4.655;0.433;282.000
2360.00; 4.670;0.433;283.000
2370.00; 4.655;0.433;285.000
2380.00; 4.650;0.433;286.000
2390.00; 4.650;0.433;288.000
2400.00; 4.655;0.433;289.000
2410.00; 4.655;0.433;290.000
2420.00; 4.650;0.433;291.000
2430.00; 4.655;0.433;293.000
2440.00; 4.645;0.433;294.000
2450.00; 4.640;0.433;295.000
2460.00; 4.650;0.433;296.000
2470.00; 4.640;0.433;297.000
2480.00; 4.645;0.433;298.000
2490.00; 4.640;0.433;300.000
2500.00; 4.655;0.433;301.000
2510.00; 4.640;0.433;302.000
2520.00; 4.640;0.433;303.000
2530.00; 4.640;0.433;304.000
2540.00; 4.635;0.433;305.000
2550.00; 4.645;0.433;307.000
2560.00; 4.645;0.433;308.000
2570.00; 4.635;0.433;309.000
2580.00; 4.635;0.433;310.000
2590.00; 4.640;0.433;311.000
2600.00; 4.630;0.433;312.000
2610.00; 4.625;0.433;314.000
2620.00; 4.635;0.433;315.000
2630.00; 4.620;0.433;316.000
2640.00; 4.635;0.433;317.000
2650.00; 4.615;0.433;318.000
2660.00; 4.640;0.433;319.000
2670.00; 4.625;0.433;320.000
2680.00; 4.640;0.433;322.000
2690.00; 4.625;0.433;324.000
2700.00; 4.625;0.433;325.000
2710.00; 4.620;0.433;326.000
2720.00; 4.625;0.433;327.000
2730.00; 4.610;0.433;328.000
2740.00; 4.620;0.433;330.000
2750.00; 4.615;0.433;331.000
2760.00; 4.615;0.433;332.000
2770.00; 4.610;0.433;333.000
2780.00; 4.610;0.433;334.000
2790.00; 4.620;0.433;335.000
2800.00; 4.620;0.433;337.000
2810.00; 4.610;0.433;338.000
2820.00; 4.615;0.433;339.000
2830.00; 4.595;0.433;340.000
2840.00; 4.605;0.433;341.000
2850.00; 4.605;0.433;342.000
2860.00; 4.595;0.433;344.000
2870.00; 4.600;0.433;345.000
2880.00; 4.595;0.433;346.000
2890.00; 4.605;0.433;347.000
2900.00; 4.590;0.433;348.000
2910.00; 4.590;0.433;349.000
2920.00; 4.600;0.433;351.000
2930.00; 4.590;0.433;352.000
2940.00; 4.595;0.433;353.000
2950.00; 4.595;0.433;354.000
2960.00; 4.585;0.433;355.000
2970.00; 4.565;0.433;356.000
2980.00; 4.565;0.433;358.000
2990.00; 4.580;0.433;360.000
3000.00; 4.575;0.433;361.000
3010.00; 4.580;0.433;362.000
3020.00; 4.570;0.433;363.000
3030.00; 4.565;0.433;364.000
3040.00; 4.575;0.433;366.000
3050.00; 4.565;0.433;367.000
3060.00; 4.565;0.433;368.000
3070.00; 4.560;0.433;369.000
3080.00; 4.565;0.433;370.000
3090.00; 4.565;0.433;371.000
3100.00; 4.550;0.433;373.000
3110.00; 4.545;0.433;374.000
3120.00; 4.560;0.433;375.000
3130.00; 4.555;0.433;376.000
3140.00; 4.550;0.433;377.000
3150.00; 4.545;0.433;378.000
3160.00; 4.550;0.433;380.000
3170.00; 4.545;0.433;381.000
3180.00; 4.545;0.433;382.000
3190.00; 4.545;0.433;383.000
3200.00; 4.535;0.433;384.000
3210.00; 4.530;0.433;385.000
3220.00; 4.535;0.433;387.000
3230.00; 4.515;0.433;388.000
3240.00; 4.525;0.433;389.000
3250.00; 4.515;0.433;390.000
3260.00; 4.525;0.433;391.000
3270.00; 4.520;0.433;392.000
3280.00; 4.510;0.433;394.000
3290.00; 4.505;0.433;396.000
3300.00; 4.520;0.433;397.000
3310.00; 4.510;0.433;398.000
3320.00; 4.515;0.433;399.000
3330.00; 4.515;0.433;400.000
3340.00; 4.505;0.433;402.000
3350.00; 4.505;0.433;403.000
3360.00; 4.500;0.433;404.000
3370.00; 4.500;0.433;405.000
3380.00; 4.485;0.433;406.000
3390.00; 4.485;0.433;407.000
3400.00; 4.495;0.433;409.000
3410.00; 4.485;0.433;410.000
3420.00; 4.480;0.433;411.000
3430.00; 4.480;0.433;412.000
3440.00; 4.475;0.433;413.000
3450.00; 4.475;0.433;414.000
3460.00; 4.475;0.433;416.000
3470.00; 4.465;0.433;417.000
3480.00; 4.470;0.433;418.000
3490.00; 4.465;0.433;419.000
3500.00; 4.445;0.433;420.000
3510.00; 4.450;0.433;421.000
3520.00; 4.465;0.433;423.000
3530.00; 4.450;0.433;424.000
3540.00; 4.445;0.433;425.000
3550.00; 4.440;0.433;426.000
3560.00; 4.440;0.433;427.000
3570.00; 4.440;0.433;428.000
3580.00; 4.430;0.433;430.000
3590.00; 4.430;0.433;433.000
3600.00; 4.420;0.433;434.000
3610.00; 4.425;0.433;435.000
3620.00; 4.410;0.433;436.000
3630.00; 4.400;0.433;437.000
3640.00; 4.405;0.433;439.000
3650.00; 4.415;0.433;440.000
3660.00; 4.390;0.433;441.000
3670.00; 4.380;0.433;442.000
3680.00; 4.385;0.433;443.000
3690.00; 4.380;0.433;444.000
3700.00; 4.370;0.433;446.000
3710.00; 4.380;0.433;447.000
3720.00; 4.355;0.433;448.000
3730.00; 4.340;0.433;449.000
3740.00; 4.345;0.433;450.000
3750.00; 4.335;0.433;451.000
3760.00; 4.325;0.433;453.000
3770.00; 4.330;0.433;454.000
3780.00; 4.325;0.433;455.000
3790.00; 4.310;0.433;456.000
3800.00; 4.295;0.433;457.000
3810.00; 4.295;0.433;458.000
3820.00; 4.280;0.433;460.000
3830.00; 4.265;0.433;461.000
3840.00; 4.260;0.433;462.000
3850.00; 4.245;0.433;463.000
3860.00; 4.230;0.433;464.000
3870.00; 4.215;0.433;465.000
3880.00; 4.190;0.433;467.000
3890.00; 4.190;0.433;469.000
3900.00; 4.155;0.433;470.000
3910.00; 4.140;0.433;471.000
3920.00; 4.115;0.433;472.000
3930.00; 4.075;0.433;473.000
3940.00; 4.040;0.433;475.000
3950.00; 4.005;0.433;476.000
3960.00; 3.950;0.433;477.000
3970.00; 3.900;0.433;478.000
3980.00; 3.840;0.433;479.000
3990.00; 3.760;0.433;480.000
4000.00; 3.605;0.433;482.000
4010.00; 3.470;0.433;483.000
4020.00; 3.420;0.433;484.000
4030.00; 3.370;0.433;485.000
4040.00; 3.335;0.433;486.000
4050.00; 3.305;0.433;487.000
4060.00; 3.270;0.433;489.000
4070.00; 3.250;0.433;490.000
4080.00; 3.245;0.433;491.000
4090.00; 3.245;0.433;492.000
4100.00; 3.200;0.433;493.000
